; SpeX prism spectrum of 0151+1244 obtained 2003-09-19 by Adam J. Burgasser
; Spectrum in F_lambda normalized at 1.25-1.35 um
; Contact Dr. Burgasser for use or reproduction of this spectrum
; Wavelength (um)    Flux (normalized F_lambda)    S/N
; -------------------------------------------------------------------------
0.657425	0.481130	3.06685
0.659611	0.0857191	1.35466
0.661789	-0.159896	0.00000
0.663961	0.482790	1.06394
0.666126	0.320058	1.03832
0.668286	0.0963658	0.406514
0.670442	0.108489	0.480908
0.672594	0.102658	0.486374
0.674744	0.435636	2.19608
0.676892	-0.0120297	0.00000
0.679039	-0.233325	0.00000
0.681185	-0.0109305	0.00000
0.683333	-0.174874	0.00000
0.685481	0.149415	0.652312
0.687632	0.0296705	0.310376
0.689786	0.00660032	0.128134
0.691942	0.193540	0.912613
0.694103	-0.0100657	0.00000
0.696269	0.120885	0.875085
0.698440	0.205258	5.03541
0.700617	-0.0103359	0.00000
0.702801	0.330389	2.03336
0.704992	-0.0371862	0.00000
0.707191	0.0218120	0.270248
0.709398	0.125472	2.24791
0.711613	0.131114	0.650383
0.713838	-0.0725750	0.00000
0.716073	0.0103465	0.396615
0.718319	-0.0415569	0.00000
0.720575	0.0963781	0.651229
0.722842	0.00818359	0.0485321
0.725122	0.0304265	0.481044
0.727413	0.0406757	0.724455
0.729717	0.0789216	0.512459
0.732034	0.0938763	0.634801
0.734364	0.0482009	0.473641
0.736708	0.0546676	0.481943
0.739066	-0.00834120	0.00000
0.741439	0.0546019	0.415991
0.743826	0.0201443	0.372135
0.746228	0.0210789	0.530883
0.748646	0.0124087	0.394357
0.751079	0.0652669	0.595121
0.753529	0.0131130	0.659638
0.755995	0.0475208	0.667351
0.758477	0.0203171	0.919439
0.760976	0.00928832	0.276917
0.763492	-0.0114561	0.00000
0.766025	-0.0894575	0.00000
0.768576	-0.0340664	0.00000
0.771144	0.0504782	1.93794
0.773730	0.0662190	1.83787
0.776334	0.0386776	0.685151
0.778957	0.0890508	2.06504
0.781597	0.00661267	0.209287
0.784257	-0.0308547	0.00000
0.786934	0.0574662	0.731741
0.789631	0.0190689	0.529277
0.792347	0.0443948	0.863333
0.795081	0.0283174	2.12705
0.797835	0.0226451	0.349365
0.800608	0.0602186	1.28458
0.803400	0.0575371	3.40475
0.806211	-0.0304699	0.00000
0.809042	0.0760559	3.29981
0.811893	0.00105767	0.0912347
0.814763	0.000753682	0.0159638
0.817653	0.0654086	0.874006
0.820562	-0.00200966	0.00000
0.823491	0.0226009	6.62042
0.826439	0.0318082	0.650626
0.829408	0.0547563	1.33253
0.832396	0.0495281	10.5481
0.835404	0.0644552	5.40676
0.838431	0.0379149	0.877558
0.841478	0.0866770	3.79507
0.844545	0.169360	16.8115
0.847632	0.129413	4.21732
0.850738	0.0684917	2.36894
0.853864	0.0808941	2.94906
0.857009	0.128785	17.0156
0.860174	0.103878	2.81973
0.863358	0.144072	7.51595
0.866561	0.129477	4.05229
0.869784	0.166399	5.09178
0.873026	0.119335	5.70928
0.876287	0.138114	7.12625
0.879567	0.191667	25.2670
0.882867	0.194647	5.34841
0.886185	0.210206	7.96959
0.889521	0.181768	8.07082
0.892877	0.241479	6.91835
0.896251	0.250984	6.96697
0.899643	0.263316	7.97759
0.903054	0.260124	11.9612
0.906483	0.301298	14.0647
0.909930	0.273932	35.5882
0.913395	0.277189	14.5640
0.916877	0.352917	80.5886
0.920378	0.297432	11.5306
0.923896	0.262772	20.9032
0.927431	0.318609	10.3006
0.930984	0.210789	4.46218
0.934553	0.369073	10.6252
0.938140	0.355446	38.4219
0.941743	0.382612	9.89816
0.945363	0.392737	9.08635
0.949000	0.369698	16.2925
0.952653	0.391299	20.2380
0.956321	0.415664	25.9892
0.960006	0.384460	19.7770
0.963707	0.406389	60.7388
0.967423	0.470821	16.9107
0.971155	0.466850	18.7031
0.974901	0.517891	25.9859
0.978663	0.487414	52.2974
0.982440	0.503115	31.3330
0.986231	0.476010	24.6608
0.990037	0.447011	31.9814
0.993857	0.479175	17.2540
0.997692	0.510076	50.1947
1.00154	0.498107	34.6989
1.00540	0.536443	79.6031
1.00928	0.512556	40.1418
1.01317	0.589199	28.6686
1.01707	0.580314	57.7490
1.02098	0.582655	30.3116
1.02491	0.588344	27.5524
1.02885	0.631486	122.583
1.03280	0.639599	22.0937
1.03677	0.659790	49.6882
1.04074	0.679934	29.8632
1.04473	0.663905	32.2665
1.04873	0.710259	44.8447
1.05274	0.701436	89.3132
1.05676	0.700660	66.6277
1.06080	0.719247	53.9471
1.06484	0.725001	40.1925
1.06889	0.727985	69.5938
1.07296	0.737018	35.2792
1.07703	0.726069	23.3834
1.08112	0.785604	71.9506
1.08521	0.775498	30.8349
1.08931	0.734436	45.1571
1.09342	0.711918	34.0642
1.09755	0.676371	26.6229
1.10168	0.677238	20.6731
1.10581	0.634189	30.5468
1.10996	0.594044	25.1386
1.11412	0.567168	112.461
1.11828	0.631832	27.4084
1.12245	0.625572	46.6736
1.12663	0.639429	43.5059
1.13081	0.654600	70.0796
1.13500	0.597742	57.2143
1.13920	0.595488	23.1022
1.14341	0.593992	71.0953
1.14762	0.655851	75.1900
1.15184	0.663957	53.9532
1.15607	0.658224	48.9669
1.16030	0.652484	92.8871
1.16453	0.609958	53.0737
1.16877	0.560286	51.6730
1.17302	0.600299	43.5754
1.17727	0.609026	46.4261
1.18153	0.678481	55.9316
1.18579	0.736107	135.622
1.19006	0.753956	316.908
1.19433	0.782066	109.060
1.19860	0.799800	78.1505
1.20288	0.835839	348.837
1.20716	0.825746	111.056
1.21145	0.862053	43.8806
1.21574	0.865532	76.4131
1.22003	0.912489	57.7649
1.22432	0.923957	203.774
1.22862	0.913131	39.7438
1.23292	0.907066	40.8421
1.23722	0.879325	96.8089
1.24153	0.919735	74.5649
1.24584	0.864483	100.627
1.25014	0.908368	50.1793
1.25446	0.928600	76.0406
1.25877	0.958804	170.216
1.26308	0.961250	358.926
1.26740	0.972542	183.918
1.27171	0.990030	59.5665
1.27603	1.00000	82.1674
1.28034	0.970553	202.727
1.28466	0.965571	81.0505
1.28898	0.974317	40.8162
1.29330	0.990653	247.688
1.29762	0.969567	112.673
1.30193	0.952171	65.5927
1.30625	0.952243	84.9875
1.31057	0.918725	62.8218
1.31489	0.913864	166.617
1.31920	0.912696	134.661
1.32352	0.827794	70.6882
1.32783	0.742382	41.2980
1.33214	0.541059	28.6087
1.33645	0.404200	27.1532
1.34076	0.342077	37.9426
1.34507	0.283504	36.4032
1.34938	0.257977	15.8521
1.35368	0.277662	14.5107
1.35799	0.238622	6.81365
1.36229	0.276758	3.80881
1.36659	0.364470	9.16868
1.37088	0.392775	29.1132
1.37518	0.331128	15.3694
1.37947	0.405822	14.8578
1.38376	0.331633	67.9002
1.38804	0.331051	19.3195
1.39232	0.374473	55.1216
1.39660	0.334467	11.7066
1.40088	0.337087	33.3112
1.40515	0.350366	32.1117
1.40942	0.318625	14.5350
1.41369	0.281327	18.7100
1.41795	0.254392	6.47740
1.42221	0.228469	32.1768
1.42646	0.266159	13.9026
1.43071	0.266623	26.8733
1.43496	0.307841	30.6196
1.43920	0.271381	31.4677
1.44344	0.335122	13.2887
1.44768	0.323096	30.3242
1.45191	0.373893	19.6552
1.45613	0.354512	18.8727
1.46035	0.405168	22.5191
1.46457	0.399626	24.3813
1.46878	0.423816	21.2997
1.47298	0.400608	55.6781
1.47719	0.416502	23.4839
1.48138	0.434124	18.9037
1.48557	0.481028	33.7205
1.48976	0.451929	55.6231
1.49394	0.485339	38.4660
1.49812	0.513339	116.506
1.50229	0.520640	24.2198
1.50645	0.501175	31.4108
1.51061	0.546270	27.9087
1.51477	0.578066	46.7015
1.51892	0.603592	43.7355
1.52306	0.635942	109.799
1.52720	0.610034	26.0924
1.53133	0.649929	57.0758
1.53545	0.685780	27.6985
1.53957	0.679379	71.6559
1.54369	0.706876	49.2614
1.54780	0.729212	71.5747
1.55190	0.756543	310.913
1.55600	0.765139	99.3248
1.56009	0.743416	80.2214
1.56417	0.748476	107.991
1.56825	0.773148	128.003
1.57232	0.802645	79.6839
1.57639	0.820578	204.261
1.58045	0.863141	27.5314
1.58450	0.823913	389.104
1.58855	0.798416	47.6978
1.59259	0.833771	98.5450
1.59662	0.821655	155.597
1.60065	0.820159	54.9023
1.60467	0.822793	93.4001
1.60869	0.830812	60.1859
1.61270	0.812116	64.5347
1.61670	0.787560	40.6489
1.62069	0.801199	115.713
1.62468	0.794569	58.9419
1.62867	0.768288	167.792
1.63264	0.785376	44.7112
1.63661	0.754757	37.9545
1.64058	0.783335	61.7203
1.64453	0.790518	163.780
1.64848	0.798536	203.015
1.65243	0.781572	127.279
1.65636	0.799227	62.0557
1.66029	0.765838	66.3445
1.66422	0.755830	41.0727
1.66814	0.721917	28.4171
1.67205	0.718090	58.8970
1.67595	0.730125	85.0630
1.67985	0.735114	140.770
1.68374	0.737192	77.7138
1.68763	0.720148	40.4523
1.69150	0.738034	69.6760
1.69538	0.734208	57.6818
1.69924	0.705531	74.3764
1.70310	0.708679	30.8710
1.70695	0.697133	66.0564
1.71080	0.679927	65.3062
1.71464	0.686784	90.9028
1.71847	0.674095	97.3849
1.72229	0.647197	85.7195
1.72611	0.623710	24.3921
1.72993	0.587164	62.1843
1.73373	0.587097	62.3084
1.73753	0.535906	193.589
1.74133	0.546521	47.8235
1.74511	0.542025	58.4304
1.74890	0.496266	25.4769
1.75267	0.470677	60.2046
1.75644	0.462610	36.6526
1.76020	0.458808	33.6425
1.76396	0.405044	25.0693
1.76771	0.369928	16.7486
1.77145	0.360739	20.5654
1.77519	0.365994	38.1679
1.77892	0.352177	40.5186
1.78264	0.331938	16.3624
1.78636	0.310632	43.3314
1.79007	0.349713	81.8538
1.79378	0.314558	21.7059
1.79748	0.313490	100000.
1.80117	0.299500	13.3814
1.80486	0.247907	12.5187
1.80854	0.296898	13.8157
1.81222	0.316681	85.6165
1.81589	0.336842	28.4564
1.81955	0.314403	13.1826
1.82321	0.305940	18.6738
1.82686	0.328700	19.2280
1.83051	0.287571	13.0868
1.83415	0.286887	28.4813
1.83779	0.298299	14.8370
1.84142	0.229567	10.1557
1.84504	0.266490	9.61541
1.84866	0.258387	12.9869
1.85227	0.204525	7.49979
1.85587	0.188758	4.21519
1.85948	0.228690	16.6732
1.86307	0.179754	19.2931
1.86666	0.297849	9.54874
1.87024	0.324079	12.7256
1.87382	0.275514	5.21907
1.87740	0.253524	4.90507
1.88096	0.294241	12.0428
1.88453	0.270006	28.3922
1.88808	0.283015	22.9593
1.89163	0.291064	35.5691
1.89518	0.295745	15.5362
1.89872	0.329959	22.5812
1.90226	0.356787	12.2609
1.90579	0.245197	8.97766
1.90931	0.409383	12.2074
1.91283	0.366088	27.7968
1.91634	0.394087	17.9893
1.91985	0.351245	17.8284
1.92336	0.355259	24.4638
1.92686	0.312983	9.73514
1.93035	0.289332	12.1020
1.93384	0.284131	21.1297
1.93732	0.268380	21.1145
1.94080	0.229987	23.3043
1.94428	0.255523	31.9641
1.94775	0.213951	27.1143
1.95121	0.240634	16.3094
1.95467	0.246794	24.6851
1.95812	0.226093	39.3024
1.96157	0.256022	31.1122
1.96502	0.207182	19.2115
1.96846	0.251265	24.3623
1.97189	0.254449	30.1218
1.97532	0.257971	21.6306
1.97875	0.269125	33.5842
1.98217	0.245185	34.6220
1.98558	0.265954	50.7870
1.98899	0.241240	27.4652
1.99240	0.258362	17.1071
1.99580	0.271340	13.8700
1.99920	0.276592	12.9985
2.00259	0.261525	44.1949
2.00598	0.248873	6.62247
2.00936	0.267037	7.46461
2.01274	0.293791	34.7615
2.01611	0.310631	25.5386
2.01948	0.326058	16.6149
2.02284	0.319415	16.2388
2.02620	0.349320	19.4614
2.02956	0.333463	39.5775
2.03291	0.351913	120.732
2.03625	0.367476	82.7143
2.03960	0.351883	37.3284
2.04293	0.352436	36.1776
2.04627	0.381417	36.6678
2.04959	0.385568	42.0907
2.05292	0.380607	22.9986
2.05624	0.385885	16.1079
2.05955	0.398623	64.1150
2.06286	0.406583	82.1107
2.06616	0.388152	111.398
2.06947	0.420235	32.4433
2.07276	0.417562	20.1545
2.07605	0.410569	79.3752
2.07934	0.421499	359.714
2.08262	0.418690	87.1263
2.08590	0.405410	69.5071
2.08917	0.420293	128.564
2.09244	0.427803	141.032
2.09571	0.420977	212.199
2.09897	0.418624	93.8535
2.10222	0.412595	67.8622
2.10547	0.411395	40.2642
2.10872	0.424118	70.2406
2.11196	0.416930	94.7050
2.11520	0.408944	35.7361
2.11843	0.406943	34.8289
2.12166	0.415738	39.0897
2.12488	0.404287	81.3111
2.12810	0.400888	75.2412
2.13132	0.396357	167.143
2.13453	0.397834	25.8122
2.13773	0.398962	121.092
2.14093	0.395828	54.4799
2.14413	0.397146	141.747
2.14732	0.405620	37.0310
2.15051	0.393321	42.1595
2.15369	0.398875	172.671
2.15687	0.382911	66.1615
2.16004	0.393337	54.7698
2.16321	0.381086	65.2104
2.16637	0.387704	44.8706
2.16953	0.382185	37.0179
2.17268	0.383543	90.7155
2.17583	0.370698	100000.
2.17897	0.374061	46.5034
2.18211	0.353050	68.5310
2.18525	0.353813	49.8685
2.18837	0.350139	47.8064
2.19150	0.335445	29.1382
2.19462	0.352218	45.6566
2.19773	0.335786	24.5607
2.20084	0.303437	65.0495
2.20395	0.297157	129.519
2.20705	0.301688	27.9395
2.21014	0.303981	54.7862
2.21323	0.303533	66.7327
2.21632	0.297628	19.2125
2.21940	0.301327	45.3072
2.22247	0.301111	29.5659
2.22554	0.294938	25.4017
2.22861	0.294417	38.0552
2.23167	0.297917	33.5982
2.23472	0.295295	26.6526
2.23777	0.286057	46.6096
2.24082	0.280773	71.7428
2.24386	0.274471	106.114
2.24689	0.271757	44.0936
2.24992	0.268902	65.6918
2.25294	0.264472	40.5713
2.25596	0.270462	128.418
2.25898	0.257639	54.9057
2.26199	0.254234	19.5748
2.26499	0.266008	29.6718
2.26799	0.258532	65.7849
2.27098	0.248427	32.9528
2.27397	0.244533	49.1276
2.27695	0.251211	34.7798
2.27993	0.270283	50.6859
2.28290	0.250751	52.4971
2.28587	0.243446	37.7804
2.28883	0.234793	30.4300
2.29179	0.223469	49.0620
2.29474	0.211871	23.1208
2.29769	0.191096	13.1786
2.30063	0.189563	32.2410
2.30356	0.197783	37.2235
2.30649	0.189785	18.3708
2.30942	0.197518	24.7808
2.31234	0.194450	32.1474
2.31526	0.197800	46.5545
2.31817	0.158298	17.0751
2.32107	0.158478	20.6150
2.32397	0.155510	19.4751
2.32687	0.167178	31.1371
2.32976	0.164450	26.5038
2.33264	0.166764	39.3174
2.33552	0.154998	17.3781
2.33840	0.164391	16.1400
2.34127	0.173868	23.8555
2.34413	0.175375	31.2710
2.34699	0.189527	21.6625
2.34985	0.163530	9.04384
2.35270	0.168075	11.1639
2.35555	0.179071	18.9874
2.35839	0.183850	21.4985
2.36123	0.166524	33.8423
2.36406	0.202317	17.0645
2.36689	0.169279	12.2251
2.36971	0.180981	16.0744
2.37253	0.151227	12.1142
2.37535	0.159168	11.1739
2.37816	0.150130	8.61064
2.38097	0.189356	23.7885
2.38377	0.185282	21.5617
2.38657	0.180751	12.1168
2.38937	0.193061	9.69958
2.39216	0.174758	24.7443
2.39495	0.217035	14.7362
2.39773	0.155202	14.3739
2.40051	0.180332	12.9416
2.40329	0.193999	12.1776
2.40607	0.156258	7.57899
2.40884	0.172031	10.3758
2.41161	0.190315	41.9687
2.41438	0.194997	8.31933
2.41714	0.194258	11.9693
2.41990	0.193352	10.2297
2.42266	0.162362	20.3930
2.42541	0.159421	12.6740
2.42817	0.186536	7.74461
2.43092	0.173912	7.90471
2.43367	0.198070	7.72288
2.43642	0.172025	12.5265
2.43917	0.165231	9.10740
2.44192	0.169644	6.43247
2.44466	0.195911	28.2086
2.44741	0.165310	5.13671
2.45015	0.224014	9.63509
2.45289	0.163335	4.54027
2.45564	0.147871	8.65243
2.45838	0.131571	30.5684
2.46113	0.159865	12.1103
2.46387	0.135757	7.89065
2.46662	0.162280	35.9099
2.46936	0.111988	5.49373
2.47211	0.119503	10.1460
2.47486	0.0751072	4.15944
2.47761	0.141767	6.99756
2.48036	0.151783	4.36727
2.48312	0.154937	4.88764
2.48588	0.0880789	1.69015
2.48864	0.0672808	2.95803
2.49140	0.123638	1.65061
2.49417	0.0931484	10.4220
2.49694	0.164630	5.19019
2.49972	0.211554	7.43599
2.50250	0.0791366	1.10254
2.50529	0.0846869	1.72162
2.50808	0.137303	2.60069
2.51088	0.240416	12.5537
2.51368	0.195010	2.00925
2.51649	0.102842	1.77146
2.51931	0.0677427	0.809199
2.52213	0.0955189	1.97106
2.52497	0.277385	8.15580
2.52781	0.318060	13.6929
2.53066	0.132178	0.605964
2.53352	0.120434	0.767004
2.53639	-0.00436279	0.00000
2.53927	0.0424596	0.973051
2.54216	0.574323	3.46484
2.54506	0.444985	0.921010
2.54797	0.263779	1.19470
2.55090	0.360150	0.588341
2.55383	-0.301090	0.00000
2.55679	0.255390	0.722653
2.55975	-0.0437365	0.00000
