; SpeX prism spectrum of 0407+1710 obtained 2003-09-19 by Adam J. Burgasser
; Spectrum in F_lambda normalized at 1.25-1.35 um
; Contact Dr. Burgasser for use or reproduction of this spectrum
; Wavelength (um)    Flux (normalized F_lambda)    S/N
; -------------------------------------------------------------------------
0.657326	1.35910	2.45581
0.659512	1.23735	1.92935
0.661691	0.440370	0.741609
0.663862	0.470966	0.519969
0.666028	0.657928	1.69446
0.668188	0.712453	1.54338
0.670344	0.284711	4.92744
0.672497	0.112271	1.42944
0.674646	1.10877	3.24866
0.676794	0.338585	5.14490
0.678941	0.120571	0.317696
0.681088	0.431697	1.98157
0.683236	0.223667	0.457687
0.685384	0.258482	20.6858
0.687535	0.329899	2.12477
0.689688	0.349936	1.37707
0.691845	0.321028	3.23597
0.694006	0.308191	0.717784
0.696171	0.432402	1.25683
0.698342	0.187092	2.91535
0.700519	0.0957045	0.908322
0.702702	0.410118	3.26767
0.704893	0.287453	2.36104
0.707091	0.404329	0.925150
0.709297	0.0322978	0.141090
0.711513	0.345060	2.82912
0.713738	0.503977	2.08420
0.715972	0.391960	6.55322
0.718217	0.123020	3.01084
0.720473	0.231865	0.679850
0.722740	0.489139	1.47706
0.725018	0.219074	1.38386
0.727309	0.454447	6.38983
0.729612	0.652132	6.80754
0.731929	0.534268	5.44894
0.734258	0.563799	5.03424
0.736602	0.430217	2.53089
0.738959	0.365367	1.39557
0.741331	0.306881	1.61694
0.743717	0.264438	2.05991
0.746119	0.387439	4.08533
0.748536	0.556200	5.92672
0.750969	0.489950	5.42886
0.753418	0.522676	11.5652
0.755883	0.406266	5.25964
0.758364	0.569567	6.52539
0.760862	0.488324	5.91125
0.763378	0.293021	8.65452
0.765910	0.108088	1.69377
0.768460	0.141067	1.96751
0.771027	0.297799	3.84440
0.773613	0.236979	3.65884
0.776216	0.209265	4.03464
0.778838	0.210190	1.88965
0.781477	0.256276	6.02599
0.784136	0.267832	6.51781
0.786813	0.308886	2.57209
0.789509	0.247126	5.00080
0.792223	0.427727	9.01339
0.794957	0.392525	14.0834
0.797710	0.414239	10.0325
0.800482	0.500230	6.97355
0.803273	0.670375	25.7993
0.806084	0.556538	73.2199
0.808914	0.615247	24.9874
0.811763	0.753354	38.5163
0.814632	0.663601	17.9461
0.817521	0.715095	15.2106
0.820430	0.617711	8.66678
0.823358	0.713796	32.2402
0.826306	0.684684	14.4206
0.829273	0.779183	9.17809
0.832260	0.663660	17.2677
0.835267	0.623313	20.4316
0.838294	0.674271	34.9013
0.841340	0.551737	10.8474
0.844406	0.467810	10.1067
0.847492	0.424049	40.2413
0.850597	0.390651	41.0476
0.853722	0.425844	5.51880
0.856866	0.491492	14.6422
0.860030	0.532134	54.9434
0.863213	0.492538	28.0437
0.866416	0.554267	11.6027
0.869638	0.676976	10.1685
0.872879	0.520531	34.6463
0.876139	0.621457	30.8068
0.879418	0.723752	12.5706
0.882717	0.746666	22.7206
0.886034	0.664156	48.3363
0.889370	0.601401	11.3408
0.892724	0.650747	25.7301
0.896097	0.663196	28.4016
0.899489	0.702623	9.63961
0.902899	0.805744	92.4956
0.906327	0.785992	65.3464
0.909773	0.868992	73.0592
0.913237	0.881668	24.0734
0.916719	0.960211	26.5113
0.920219	0.968666	57.4338
0.923736	0.920525	117.241
0.927271	0.923042	31.8162
0.930822	0.894947	24.1494
0.934391	0.899381	27.3265
0.937977	0.921282	57.7710
0.941580	0.849050	18.6417
0.945199	0.913170	11.0447
0.948835	0.915461	37.0869
0.952487	0.912596	32.2135
0.956155	0.953765	31.3664
0.959839	0.893098	77.5124
0.963539	0.980727	35.5831
0.967254	0.965711	41.2880
0.970985	1.03387	22.3919
0.974731	1.00621	13.8271
0.978492	0.999617	17.2037
0.982269	0.982200	17.6768
0.986059	0.989240	29.0369
0.989865	0.938902	30.5628
0.993684	0.912062	33.7670
0.997518	0.908057	130.129
1.00137	0.909445	38.3009
1.00523	0.882421	33.1012
1.00910	0.945288	33.3521
1.01299	0.959057	48.8052
1.01689	0.932775	69.7406
1.02081	0.950450	24.2890
1.02473	0.924421	239.852
1.02867	0.980551	135.106
1.03262	0.977108	38.2688
1.03659	1.02033	287.415
1.04056	1.03407	47.9676
1.04455	1.02064	119.962
1.04855	1.03570	124.123
1.05256	1.05213	94.2392
1.05658	1.00477	69.3949
1.06061	1.03866	993.234
1.06466	1.03430	72.4125
1.06871	1.02214	53.5468
1.07277	1.04663	67.4298
1.07685	1.03327	168.302
1.08093	1.06345	60.1545
1.08502	1.06731	101.570
1.08913	1.07700	55.8730
1.09324	1.06606	48.7106
1.09736	1.05482	276.327
1.10149	1.09438	115.430
1.10563	1.03788	52.3241
1.10977	1.01211	26.5342
1.11393	1.00043	164.478
1.11809	1.02451	44.1177
1.12226	1.00632	29.7539
1.12644	0.994701	132.210
1.13062	1.03623	177.352
1.13481	0.945154	26.9280
1.13901	0.906666	43.2086
1.14322	0.902952	142.615
1.14743	0.954141	63.6780
1.15165	1.00810	82.7681
1.15587	1.02138	751.615
1.16010	1.00212	131.842
1.16434	0.983068	50.7377
1.16858	0.973263	168.038
1.17283	0.925455	330.431
1.17708	0.936816	45.3107
1.18134	0.917513	181.693
1.18560	0.938160	213.600
1.18986	0.936309	227.870
1.19413	0.956859	59.9394
1.19841	0.913526	147.101
1.20269	0.929223	165.535
1.20697	0.928593	132.462
1.21125	0.906073	21.5498
1.21554	0.985908	265.614
1.21983	1.02503	155.542
1.22413	1.00792	165.323
1.22843	0.968881	44.7977
1.23273	1.01129	827.646
1.23703	0.973773	181.814
1.24133	0.946448	101.922
1.24564	0.942218	100000.
1.24995	0.954493	79.0992
1.25426	0.929383	231.465
1.25857	0.971822	37.4508
1.26289	0.996443	64.2222
1.26720	1.00000	235.115
1.27152	0.985551	99.3028
1.27583	0.991477	43.9307
1.28015	0.922028	277.540
1.28447	0.984543	51.5682
1.28878	0.999768	90.6061
1.29310	0.987053	48.1873
1.29742	0.993818	83.9961
1.30174	0.964007	63.7890
1.30606	0.974861	62.1564
1.31037	0.975406	90.3559
1.31469	0.934625	115.790
1.31901	0.914354	177.435
1.32332	0.948426	79.7737
1.32763	0.904497	176.427
1.33195	0.820322	67.2045
1.33626	0.723703	230.165
1.34057	0.693008	119.213
1.34488	0.642346	46.7107
1.34918	0.652666	30.2103
1.35349	0.665390	145.785
1.35779	0.653024	24.7551
1.36209	0.703780	38.2221
1.36639	0.640099	21.5048
1.37069	0.638975	41.6415
1.37498	0.666490	26.9222
1.37927	0.681636	25.0462
1.38356	0.743226	71.3555
1.38785	0.641644	33.7930
1.39213	0.637671	20.9957
1.39641	0.621727	60.4938
1.40069	0.599620	17.1462
1.40496	0.601267	18.7424
1.40923	0.646212	31.7174
1.41349	0.591857	14.1677
1.41776	0.553133	34.9066
1.42202	0.514664	26.7202
1.42627	0.539086	46.3761
1.43052	0.547622	47.2443
1.43477	0.541858	16.1344
1.43901	0.559185	54.0137
1.44325	0.567225	94.4042
1.44748	0.540579	20.6156
1.45171	0.557675	21.6051
1.45594	0.569360	111.844
1.46016	0.513122	79.3153
1.46438	0.542354	49.7416
1.46859	0.545453	66.6707
1.47279	0.512700	55.4335
1.47700	0.544352	30.1957
1.48119	0.512295	16.9499
1.48538	0.512981	46.8193
1.48957	0.522648	35.5554
1.49375	0.542185	36.6464
1.49793	0.548787	98.6336
1.50210	0.518126	96.7467
1.50626	0.528775	72.8807
1.51042	0.541741	23.4307
1.51458	0.563712	24.5028
1.51873	0.559882	101.135
1.52287	0.567185	24.1577
1.52701	0.571777	40.8638
1.53114	0.529893	57.2555
1.53527	0.573671	78.2729
1.53939	0.551182	37.8640
1.54350	0.540917	144.478
1.54761	0.555200	37.5066
1.55171	0.595033	52.5260
1.55581	0.587358	45.5652
1.55990	0.577407	24.5791
1.56399	0.567315	78.6662
1.56806	0.574359	36.4247
1.57214	0.568642	35.2456
1.57620	0.617693	151.091
1.58026	0.581090	30.4020
1.58432	0.562922	46.3564
1.58836	0.589145	21.4032
1.59240	0.573930	70.3824
1.59644	0.587658	168.430
1.60047	0.579351	90.5584
1.60449	0.600641	65.7559
1.60850	0.603530	26.3181
1.61251	0.558062	114.412
1.61652	0.618118	104.593
1.62051	0.604219	32.4465
1.62450	0.583400	50.6956
1.62849	0.626127	41.7215
1.63246	0.621545	83.5113
1.63643	0.590607	35.1119
1.64040	0.632338	100000.
1.64435	0.625965	26.5933
1.64830	0.645164	165.019
1.65225	0.612081	44.9844
1.65619	0.594670	25.9083
1.66012	0.633071	222.159
1.66404	0.624317	128.803
1.66796	0.592311	46.6771
1.67187	0.601491	101.011
1.67577	0.579334	60.2032
1.67967	0.621363	56.0934
1.68356	0.616371	41.1901
1.68745	0.590659	47.5031
1.69133	0.616032	223.653
1.69520	0.571633	81.0478
1.69907	0.603201	50.2679
1.70292	0.577232	52.2941
1.70678	0.574865	28.2121
1.71062	0.591342	74.3093
1.71446	0.556440	73.2111
1.71829	0.560869	120.100
1.72212	0.527781	32.6057
1.72594	0.542702	95.5880
1.72975	0.507086	171.514
1.73356	0.490207	101.410
1.73736	0.499551	32.3081
1.74116	0.513293	26.9133
1.74494	0.497847	87.4789
1.74872	0.485003	43.9742
1.75250	0.464456	38.9455
1.75627	0.468482	141.033
1.76003	0.434107	64.8546
1.76379	0.448418	48.6818
1.76754	0.454644	42.7290
1.77128	0.414500	91.8832
1.77502	0.398317	149.340
1.77875	0.424671	43.8126
1.78247	0.411089	44.9571
1.78619	0.403717	179.948
1.78990	0.391571	30.3266
1.79361	0.356215	41.0123
1.79731	0.375587	57.2117
1.80101	0.368159	41.0877
1.80469	0.389910	14.2731
1.80838	0.364012	122.739
1.81205	0.348877	13.5876
1.81572	0.392847	17.5699
1.81939	0.379741	31.9980
1.82305	0.322547	12.3551
1.82670	0.384213	12.0766
1.83035	0.315112	41.5082
1.83399	0.341779	10.9100
1.83762	0.251842	9.04082
1.84125	0.288148	15.6860
1.84487	0.371734	4.20738
1.84849	0.245597	18.2979
1.85211	0.272677	6.99977
1.85571	0.252813	5.42902
1.85931	0.265244	29.1462
1.86291	0.307081	12.7114
1.86650	0.306851	17.3680
1.87008	0.329158	9.95175
1.87366	0.275265	6.93364
1.87723	0.264668	4.44603
1.88080	0.253398	9.30498
1.88436	0.388743	55.0457
1.88792	0.309078	27.3744
1.89147	0.290533	18.4721
1.89502	0.303371	15.8031
1.89856	0.328941	13.5387
1.90210	0.306128	23.7664
1.90563	0.304795	5.66629
1.90915	0.363423	17.8234
1.91267	0.345875	12.3462
1.91619	0.338716	32.1130
1.91969	0.344235	15.7567
1.92320	0.317911	7.05062
1.92670	0.277828	15.9731
1.93019	0.285622	15.1558
1.93368	0.315428	16.2439
1.93717	0.311380	29.9655
1.94065	0.304341	149.221
1.94412	0.286399	40.8841
1.94759	0.277377	38.6626
1.95105	0.331378	63.7198
1.95451	0.306281	18.3885
1.95797	0.310376	23.9181
1.96142	0.322587	29.5998
1.96486	0.288976	18.5549
1.96830	0.283418	41.3061
1.97173	0.308773	24.9311
1.97516	0.289026	14.6296
1.97859	0.276233	38.7587
1.98201	0.260680	13.2117
1.98543	0.265609	46.9017
1.98884	0.289483	12.5736
1.99224	0.272925	65.5976
1.99565	0.302174	10.4105
1.99904	0.272934	24.0831
2.00243	0.272132	9.80817
2.00582	0.254239	12.1229
2.00921	0.289091	38.9426
2.01258	0.258111	16.2586
2.01596	0.269148	25.3880
2.01933	0.271178	36.1811
2.02269	0.261491	26.5042
2.02605	0.289042	84.0483
2.02941	0.267382	25.6941
2.03276	0.282783	70.8076
2.03610	0.292195	18.7324
2.03944	0.275368	22.8468
2.04278	0.262865	20.2072
2.04611	0.281565	34.0034
2.04944	0.272542	23.8224
2.05277	0.260952	20.7708
2.05609	0.254416	35.6868
2.05940	0.259160	29.4452
2.06271	0.260966	20.0923
2.06602	0.270660	27.0330
2.06932	0.286902	18.2070
2.07261	0.292123	36.4138
2.07590	0.264245	69.2098
2.07919	0.275412	15.2442
2.08247	0.294970	61.3542
2.08575	0.279477	113.907
2.08903	0.296603	45.7274
2.09230	0.289173	19.6983
2.09556	0.298835	45.4386
2.09882	0.278673	102.154
2.10208	0.285961	38.8446
2.10533	0.287575	124.617
2.10857	0.287211	180.192
2.11182	0.298687	50.7364
2.11505	0.274452	44.5088
2.11829	0.283640	36.2075
2.12151	0.278861	30.2749
2.12474	0.289632	186.262
2.12796	0.288284	15.5487
2.13117	0.289700	38.6862
2.13438	0.295258	33.3168
2.13759	0.285450	33.3282
2.14079	0.290085	111.231
2.14398	0.292677	51.5314
2.14718	0.306804	37.1252
2.15036	0.288729	28.8024
2.15354	0.276888	86.2414
2.15672	0.282639	23.9997
2.15989	0.286158	52.1153
2.16306	0.284039	181.019
2.16623	0.306928	100000.
2.16938	0.305585	34.3067
2.17254	0.299109	157.795
2.17569	0.270500	29.0954
2.17883	0.315877	134.840
2.18197	0.293290	23.7546
2.18510	0.301975	37.9328
2.18823	0.298032	113.609
2.19136	0.296914	58.1936
2.19448	0.289297	200.327
2.19759	0.293942	29.1204
2.20070	0.290929	23.6410
2.20381	0.297040	35.2972
2.20691	0.290212	119.209
2.21000	0.288925	21.9621
2.21309	0.285709	19.0820
2.21618	0.292409	28.8976
2.21926	0.307112	42.3178
2.22233	0.275070	60.9782
2.22540	0.304751	23.0548
2.22847	0.324234	60.0100
2.23153	0.278133	52.3422
2.23458	0.310841	35.1622
2.23763	0.309385	48.8669
2.24068	0.285541	29.5027
2.24372	0.304855	51.8462
2.24675	0.304871	137.350
2.24978	0.302636	21.2412
2.25281	0.310254	208.645
2.25583	0.304863	22.7431
2.25884	0.288679	24.9541
2.26185	0.319197	39.4150
2.26485	0.285697	22.4356
2.26785	0.298632	27.1678
2.27085	0.276023	37.3322
2.27383	0.289497	264.323
2.27682	0.279256	24.1083
2.27979	0.296316	45.6564
2.28277	0.285031	66.3935
2.28573	0.278059	230.404
2.28870	0.280630	17.6493
2.29165	0.285633	24.2304
2.29461	0.287812	49.4664
2.29755	0.268534	25.8626
2.30049	0.254208	30.7187
2.30343	0.248864	35.5383
2.30636	0.273031	27.8855
2.30929	0.283215	35.2367
2.31221	0.267453	42.7407
2.31512	0.254695	22.0577
2.31803	0.272279	38.9921
2.32094	0.253457	34.9903
2.32384	0.242622	40.2069
2.32674	0.243763	44.8168
2.32963	0.236242	25.2897
2.33251	0.225444	25.3283
2.33539	0.217690	204.967
2.33827	0.248808	11.6128
2.34114	0.234445	25.5909
2.34400	0.244771	13.4245
2.34687	0.212729	16.9342
2.34972	0.221438	33.6921
2.35257	0.224720	27.8173
2.35542	0.232535	17.7207
2.35826	0.226229	16.9665
2.36110	0.221168	179.046
2.36393	0.220129	23.4336
2.36676	0.231969	14.9103
2.36959	0.228406	6.08389
2.37241	0.233551	35.8496
2.37522	0.249128	25.1033
2.37803	0.206140	15.5768
2.38084	0.223927	51.1101
2.38365	0.180181	43.8247
2.38645	0.194696	34.7904
2.38924	0.182569	6.67597
2.39203	0.255328	22.7202
2.39482	0.196909	34.5796
2.39761	0.210534	17.6594
2.40039	0.181869	11.4447
2.40317	0.180518	14.6731
2.40594	0.198541	29.8286
2.40871	0.201961	21.4959
2.41148	0.198016	60.7677
2.41425	0.225366	22.8469
2.41701	0.202543	11.1468
2.41977	0.182962	10.7055
2.42253	0.187675	36.3702
2.42529	0.200377	16.5922
2.42804	0.188508	8.68741
2.43080	0.180679	5.44738
2.43355	0.176641	8.50403
2.43630	0.158825	3.22378
2.43904	0.174752	6.19502
2.44179	0.216226	10.3248
2.44454	0.174160	6.85288
2.44728	0.196654	4.84912
2.45003	0.122431	4.89465
2.45277	0.153623	2.76720
2.45551	0.116259	4.83715
2.45826	0.161933	8.13389
2.46100	0.144347	5.91834
2.46375	0.171525	7.10470
2.46649	0.183887	5.61414
2.46924	0.204383	10.7912
2.47198	0.136933	4.34983
2.47473	0.147222	5.79589
2.47748	0.171574	8.56448
2.48024	0.176920	8.50907
2.48299	0.216287	20.7400
2.48575	0.168623	2.49171
2.48851	0.0634430	2.03815
2.49128	0.126995	4.49808
2.49405	0.109137	15.4441
2.49682	0.156017	2.13519
2.49959	0.102896	5.44939
2.50237	0.168589	6.44317
2.50516	0.132492	3.49701
2.50795	0.220352	38.6651
2.51075	0.0123128	0.153009
2.51355	0.162901	6.80596
2.51636	0.132287	0.889335
2.51918	0.288645	6.97408
2.52201	0.185347	7.28946
2.52484	0.0438931	0.678923
2.52768	0.234867	1.31532
2.53053	0.0546758	0.234234
2.53339	0.268452	1.26412
2.53626	-0.0774734	0.00000
2.53914	-0.235586	0.00000
2.54203	0.212919	1.40157
2.54493	0.187117	3.48407
2.54784	0.542837	2.77405
2.55076	1.42714	2.41565
2.55370	-0.246536	0.00000
2.55665	0.442144	4.34217
2.55962	-0.507179	0.00000
