; SpeX prism spectrum of 1132-1446 obtained 2003-05-21 by Adam J. Burgasser
; Spectrum in F_lambda normalized at 1.25-1.35 um
; Contact Dr. Burgasser for use or reproduction of this spectrum
; Wavelength (um)    Flux (normalized F_lambda)    S/N
; -------------------------------------------------------------------------
0.658231	1.42002	2.07540
0.660414	1.06594	1.89447
0.662589	0.654253	1.71185
0.664758	0.941423	3.23051
0.666922	0.0508842	0.0801101
0.669080	0.645672	1.72656
0.671234	0.0277018	0.179366
0.673386	0.231568	0.609985
0.675535	0.573864	1.04839
0.677682	0.419013	3.85520
0.679829	-0.0808224	0.00000
0.681976	0.369480	2.57081
0.684124	-0.0711474	0.00000
0.686273	-0.0709116	0.00000
0.688425	0.190579	1.03563
0.690579	0.253812	1.57331
0.692738	0.597593	1.90256
0.694900	-0.244001	0.00000
0.697068	0.355509	3.81158
0.699241	0.399510	1.24430
0.701421	0.239741	0.662905
0.703607	0.393900	1.68497
0.705801	0.281856	2.70017
0.708002	0.297146	1.11474
0.710212	-0.156866	0.00000
0.712431	0.141433	1.41978
0.714660	0.253735	1.71171
0.716899	0.332586	2.16441
0.719148	-0.130921	0.00000
0.721409	0.298906	1.81148
0.723680	0.417998	2.47074
0.725964	0.173204	3.18983
0.728260	0.248785	1.88130
0.730568	0.891985	4.43356
0.732890	0.513356	3.91097
0.735225	0.419613	6.86416
0.737575	0.441236	5.28461
0.739938	0.290184	1.90953
0.742316	0.482612	3.15373
0.744709	0.448618	4.44179
0.747117	0.453490	2.30645
0.749540	0.553508	5.60132
0.751980	0.469021	3.29200
0.754435	0.548261	9.18702
0.756907	0.679825	12.9360
0.759395	0.458693	1.90189
0.761900	0.318915	5.24502
0.764423	0.254257	2.89042
0.766962	0.101608	0.799557
0.769519	0.261653	4.72501
0.772094	0.0141842	0.147578
0.774687	0.316394	3.58630
0.777298	0.200796	2.56786
0.779927	0.259426	2.10828
0.782574	0.293169	2.25577
0.785240	0.473737	10.6858
0.787925	0.496337	3.89579
0.790629	0.346594	4.46225
0.793351	0.530571	12.6717
0.796093	0.623612	6.06396
0.798853	0.462560	5.51724
0.801633	0.568972	8.39284
0.804433	0.467671	6.12281
0.807251	0.660399	10.1562
0.810090	0.662200	7.53342
0.812947	0.701450	6.95210
0.815824	0.680462	14.4309
0.818721	0.646044	10.8255
0.821638	0.761362	12.6275
0.824574	0.720080	11.0073
0.827530	0.833494	11.4865
0.830506	0.782745	7.18284
0.833501	0.746694	13.2314
0.836516	0.699508	9.59728
0.839551	0.605197	10.8698
0.842605	0.629740	10.7678
0.845679	0.687538	12.1209
0.848773	0.514743	10.8652
0.851887	0.467292	8.90074
0.855019	0.629031	18.7914
0.858172	0.585103	35.1111
0.861344	0.637457	5.77269
0.864535	0.648938	8.91085
0.867746	0.611649	6.25252
0.870975	0.652269	39.8072
0.874225	0.510512	10.0195
0.877493	0.746973	24.3750
0.880780	0.721073	7.78722
0.884086	0.724944	27.0761
0.887411	0.674131	14.6364
0.890754	0.765542	32.6019
0.894117	0.690710	49.4557
0.897498	0.759008	9.28310
0.900897	0.899574	56.8757
0.904314	0.822178	16.4691
0.907750	0.786459	11.8119
0.911203	0.908910	28.5852
0.914675	0.959091	19.2805
0.918164	0.968739	20.4423
0.921671	0.953860	16.8993
0.925195	0.938772	106.520
0.928737	0.891436	20.5732
0.932296	0.884931	16.4787
0.935872	0.890681	39.5278
0.939465	1.02146	24.3484
0.943074	0.984798	15.1235
0.946700	0.994405	24.7502
0.950343	1.03232	26.0318
0.954001	0.909939	19.1630
0.957676	0.927916	37.6914
0.961367	1.01871	65.0905
0.965073	0.933546	25.1057
0.968795	0.981837	24.1971
0.972532	0.994303	15.5567
0.976285	0.908431	16.0206
0.980052	1.00475	22.8341
0.983834	1.04561	21.7119
0.987631	0.858144	14.2304
0.991442	0.901480	35.0293
0.995267	0.886389	35.0928
0.999107	0.834442	49.3906
1.00296	0.854790	26.4095
1.00683	0.837800	23.0268
1.01071	0.935430	28.3175
1.01460	0.967941	24.3711
1.01851	0.962168	82.4140
1.02243	1.02272	23.3108
1.02636	0.965102	21.0093
1.03030	0.973239	33.3322
1.03426	0.916921	16.5118
1.03823	1.08885	130.261
1.04221	0.999794	25.7001
1.04620	0.987743	17.1004
1.05021	0.972236	37.5154
1.05422	0.987613	31.7282
1.05825	1.01093	36.4006
1.06228	1.01734	566.190
1.06633	0.975429	94.5330
1.07039	1.00640	25.2523
1.07446	1.09675	23.4858
1.07853	1.01961	38.0221
1.08262	1.07955	158.850
1.08672	1.10781	38.9889
1.09083	1.07026	32.0042
1.09494	1.05692	38.7460
1.09906	1.00044	97.8539
1.10320	0.980402	64.1352
1.10734	0.994753	22.6704
1.11149	1.06490	25.8258
1.11565	1.03454	25.9095
1.11981	1.02114	71.0518
1.12399	1.02596	52.0083
1.12817	0.965200	19.9838
1.13235	0.996117	27.1626
1.13655	0.852991	29.7165
1.14075	0.914412	14.4263
1.14496	0.943928	44.7447
1.14917	0.944166	27.6102
1.15340	1.12506	14.4919
1.15762	1.02439	20.1861
1.16185	0.992275	25.2449
1.16609	0.988897	33.6441
1.17034	0.928103	24.3202
1.17459	0.938282	57.0099
1.17884	0.937283	59.0120
1.18310	0.935039	35.4503
1.18736	0.935875	76.5901
1.19163	0.921985	56.8377
1.19590	0.922214	40.9365
1.20018	0.892658	54.0822
1.20446	0.904317	33.4785
1.20874	0.888371	18.0969
1.21303	0.937140	44.1021
1.21732	0.982072	35.0026
1.22161	0.923844	65.4075
1.22591	0.940133	185.029
1.23020	0.972850	29.9705
1.23451	0.904335	53.5225
1.23881	0.941061	28.6539
1.24311	0.823847	47.1463
1.24742	0.847747	80.4023
1.25173	0.858444	22.9101
1.25604	0.946568	26.1235
1.26036	0.874779	116.560
1.26467	0.883235	14.4726
1.26898	1.00000	12.6711
1.27330	0.959193	35.2796
1.27762	0.956278	43.4233
1.28193	0.898129	97.2991
1.28625	0.875381	42.0310
1.29057	0.924928	23.7184
1.29489	0.897467	26.3394
1.29921	0.922480	29.0784
1.30352	0.936101	26.3549
1.30784	0.918614	25.8833
1.31216	0.899784	29.6664
1.31647	0.940627	26.7271
1.32079	0.932363	100.583
1.32510	0.855013	31.6687
1.32942	0.854979	25.1119
1.33373	0.802638	65.0125
1.33804	0.753473	29.7980
1.34235	0.756160	28.5357
1.34666	0.764196	35.0567
1.35097	0.720946	124.998
1.35527	0.717848	23.1836
1.35957	0.673422	20.5667
1.36387	0.655745	10.7970
1.36817	0.737524	15.6284
1.37246	0.694413	21.1414
1.37676	0.676791	14.1083
1.38105	0.626902	18.1914
1.38533	0.695219	9.05664
1.38962	0.649024	27.8589
1.39390	0.638977	21.6763
1.39818	0.577317	12.8624
1.40245	0.611273	9.01546
1.40672	0.661327	31.4449
1.41099	0.549808	11.1575
1.41526	0.644975	12.9258
1.41952	0.571093	10.3520
1.42378	0.593986	20.3913
1.42803	0.589006	52.6893
1.43228	0.563634	22.7164
1.43652	0.549937	34.8271
1.44076	0.612332	26.1893
1.44500	0.594253	41.5846
1.44923	0.589047	36.2550
1.45346	0.554519	13.8330
1.45768	0.561971	19.4255
1.46190	0.647838	31.7946
1.46612	0.636696	31.3010
1.47033	0.571716	101.482
1.47453	0.573435	14.8792
1.47873	0.553263	18.6176
1.48293	0.537810	16.3849
1.48712	0.568353	21.5313
1.49130	0.599316	21.0072
1.49548	0.559267	19.2326
1.49965	0.578539	73.2906
1.50382	0.602429	8.49921
1.50798	0.621539	19.3622
1.51214	0.617264	15.2189
1.51629	0.599517	28.7569
1.52044	0.555114	12.5366
1.52458	0.610360	17.2661
1.52872	0.625218	11.1897
1.53285	0.603353	46.8242
1.53697	0.687549	20.2619
1.54109	0.507864	13.6574
1.54520	0.591539	18.2046
1.54931	0.547943	43.3216
1.55341	0.538788	37.7464
1.55750	0.564299	42.3123
1.56159	0.629501	56.4038
1.56567	0.584615	17.0575
1.56975	0.655092	17.8050
1.57382	0.608398	20.9322
1.57788	0.621348	46.0499
1.58194	0.571486	78.6173
1.58599	0.580076	13.5585
1.59003	0.544928	15.9300
1.59407	0.660028	25.8061
1.59810	0.600107	20.9475
1.60213	0.549837	24.1685
1.60615	0.574205	8.06262
1.61016	0.559467	13.9882
1.61417	0.606252	58.1734
1.61817	0.624780	19.2574
1.62216	0.577597	14.7551
1.62615	0.579840	42.8294
1.63013	0.585076	17.6075
1.63410	0.604164	34.2817
1.63807	0.624248	34.3412
1.64203	0.570437	50.2875
1.64599	0.572956	27.6119
1.64994	0.560240	22.0456
1.65388	0.605284	31.5950
1.65781	0.575228	59.4058
1.66174	0.638257	128.669
1.66566	0.563060	26.5924
1.66958	0.518594	15.5063
1.67349	0.626564	17.7183
1.67739	0.563692	42.6319
1.68128	0.580509	31.8527
1.68517	0.640175	29.6290
1.68905	0.566167	11.4687
1.69293	0.561973	26.8798
1.69680	0.594928	20.9006
1.70066	0.604542	54.1376
1.70452	0.556918	25.9278
1.70837	0.515277	12.6653
1.71221	0.521308	22.3003
1.71605	0.537897	72.1803
1.71988	0.552790	34.1389
1.72370	0.461372	25.3154
1.72752	0.474123	28.6819
1.73133	0.510460	51.9666
1.73513	0.552055	15.3803
1.73893	0.487993	28.3816
1.74272	0.430051	13.3858
1.74651	0.496272	24.9396
1.75029	0.453760	49.2217
1.75406	0.452469	25.6736
1.75782	0.474375	34.3526
1.76158	0.475727	17.0899
1.76534	0.467272	13.2235
1.76909	0.409196	27.9254
1.77283	0.411967	61.6690
1.77656	0.420712	36.4768
1.78029	0.411996	21.0039
1.78401	0.420433	34.5242
1.78773	0.394819	31.6173
1.79144	0.442250	8.46676
1.79514	0.357299	15.7781
1.79884	0.308348	7.96395
1.80253	0.387140	84.8834
1.80622	0.297741	10.1682
1.80990	0.351927	101.828
1.81357	0.417091	18.6296
1.81724	0.349732	8.76120
1.82090	0.366386	15.6488
1.82456	0.321961	11.1290
1.82821	0.352254	6.92958
1.83185	0.310777	11.8757
1.83549	0.400826	7.70865
1.83912	0.381205	6.70122
1.84275	0.262025	8.82725
1.84637	0.240061	3.91945
1.84999	0.449931	11.5052
1.85360	0.293777	4.75121
1.85720	0.297488	9.84055
1.86080	0.269439	17.0127
1.86439	0.333828	20.3904
1.86798	0.321115	8.98860
1.87156	0.368038	7.51610
1.87514	0.133438	2.98947
1.87871	0.302171	8.27721
1.88228	0.317577	14.0618
1.88584	0.329655	17.5398
1.88939	0.296375	11.7876
1.89294	0.315810	16.8762
1.89648	0.345056	18.6941
1.90002	0.278724	7.51862
1.90356	0.292587	5.52812
1.90708	0.335345	7.55707
1.91061	0.299688	7.83003
1.91412	0.389434	8.55583
1.91764	0.345950	27.2270
1.92114	0.288465	7.13610
1.92465	0.360855	8.16970
1.92814	0.265291	4.45037
1.93164	0.270934	8.92124
1.93512	0.334628	29.7055
1.93861	0.320994	18.0583
1.94208	0.293077	40.5469
1.94555	0.264650	24.9066
1.94902	0.237251	39.0218
1.95248	0.292050	15.9775
1.95594	0.313577	6.66190
1.95939	0.279882	21.9562
1.96284	0.294593	4.51676
1.96628	0.319321	11.2038
1.96972	0.258613	7.36973
1.97315	0.283360	5.44954
1.97658	0.264348	10.2945
1.98000	0.246588	7.19479
1.98342	0.259707	29.0827
1.98684	0.246346	21.1225
1.99025	0.256423	19.5066
1.99365	0.293212	42.5349
1.99705	0.299443	9.97809
2.00045	0.346501	13.2057
2.00384	0.270314	6.96952
2.00722	0.247387	4.86549
2.01060	0.309450	154.884
2.01398	0.280301	25.9496
2.01735	0.234906	10.7560
2.02072	0.270096	18.6521
2.02408	0.275205	18.9071
2.02744	0.294623	12.1139
2.03079	0.267422	10.0658
2.03414	0.262132	13.3419
2.03749	0.260424	6.49256
2.04083	0.277991	34.8655
2.04416	0.300274	16.5714
2.04749	0.304504	7.48117
2.05082	0.344254	14.8333
2.05414	0.298420	16.1770
2.05746	0.314956	14.1026
2.06077	0.254945	11.0236
2.06408	0.290615	21.7498
2.06738	0.271670	25.3818
2.07068	0.278656	11.3649
2.07397	0.254731	33.5833
2.07726	0.258850	24.9132
2.08055	0.293296	7.66114
2.08383	0.234534	10.1734
2.08711	0.296801	19.7860
2.09038	0.263824	7.24470
2.09365	0.324824	8.69025
2.09691	0.292256	15.3262
2.10017	0.266813	30.8703
2.10342	0.268541	8.71702
2.10667	0.239236	10.1413
2.10992	0.281443	16.6700
2.11316	0.304389	20.9033
2.11639	0.292008	32.1332
2.11962	0.269340	9.18393
2.12285	0.284371	114.956
2.12607	0.300870	7.66536
2.12929	0.288501	15.4457
2.13250	0.278366	22.3395
2.13571	0.294229	42.7352
2.13891	0.283134	26.6120
2.14211	0.297131	16.8877
2.14530	0.283801	19.2045
2.14849	0.340375	16.9381
2.15168	0.287422	11.8945
2.15486	0.321874	13.2706
2.15803	0.296814	8.08269
2.16120	0.282324	31.7135
2.16437	0.293520	24.6540
2.16753	0.291492	17.9102
2.17069	0.297850	101.175
2.17384	0.315116	23.2950
2.17699	0.269258	14.2112
2.18013	0.306906	7.24841
2.18327	0.309134	8.63356
2.18640	0.266812	17.4402
2.18953	0.265583	12.2762
2.19265	0.256017	30.2654
2.19577	0.303028	13.2861
2.19888	0.271750	17.9075
2.20199	0.303003	14.0991
2.20509	0.320882	9.69733
2.20819	0.277070	24.4379
2.21128	0.302316	9.63683
2.21437	0.311231	25.6132
2.21745	0.324958	33.0001
2.22053	0.271696	17.9404
2.22360	0.262177	42.2515
2.22667	0.295115	16.4582
2.22974	0.249754	28.9627
2.23279	0.205479	16.0264
2.23585	0.255343	7.07275
2.23889	0.317785	44.7071
2.24194	0.248984	12.3733
2.24497	0.263920	24.8881
2.24801	0.273622	11.5729
2.25103	0.256889	11.2531
2.25406	0.252211	32.1021
2.25707	0.277390	14.4577
2.26009	0.304641	19.4740
2.26309	0.273421	28.6120
2.26609	0.294674	9.14582
2.26909	0.276186	10.7135
2.27208	0.265434	54.4640
2.27507	0.285204	21.4822
2.27805	0.290089	25.0524
2.28102	0.248164	23.4097
2.28399	0.268110	12.5974
2.28696	0.281411	9.43372
2.28992	0.270632	25.6550
2.29287	0.231908	17.0613
2.29582	0.282823	11.6258
2.29877	0.229500	15.3355
2.30171	0.242461	20.7886
2.30464	0.261283	10.8900
2.30757	0.241522	10.2364
2.31050	0.239555	12.3160
2.31341	0.264034	6.44360
2.31633	0.245720	4.42299
2.31924	0.227245	14.0925
2.32214	0.227919	11.3025
2.32504	0.245904	22.2078
2.32793	0.240180	19.4567
2.33082	0.243653	44.4449
2.33370	0.224513	23.8839
2.33658	0.202074	10.8862
2.33945	0.190490	6.90844
2.34232	0.284361	6.82908
2.34519	0.223238	4.08700
2.34805	0.243153	27.7297
2.35090	0.210372	30.0595
2.35375	0.200548	16.9373
2.35660	0.187647	62.3405
2.35944	0.225588	14.7935
2.36227	0.199933	7.83871
2.36510	0.208000	22.3833
2.36793	0.182098	2.97784
2.37075	0.243271	9.56292
2.37357	0.178055	16.2852
2.37639	0.234357	13.3258
2.37920	0.126944	5.20992
2.38200	0.198163	24.3081
2.38480	0.157853	30.6951
2.38760	0.227685	5.37134
2.39040	0.239002	23.1576
2.39319	0.183446	6.16295
2.39597	0.189120	5.96767
2.39876	0.173729	6.24423
2.40154	0.218546	8.33617
2.40431	0.185784	19.0463
2.40709	0.193898	5.12263
2.40986	0.165882	4.17259
2.41263	0.205911	4.92050
2.41539	0.195196	5.63877
2.41816	0.173670	13.9575
2.42092	0.246210	5.79884
2.42367	0.114764	2.26642
2.42643	0.118119	3.37224
2.42918	0.162793	9.34264
2.43193	0.100607	10.2813
2.43468	0.198366	8.43392
2.43743	0.226242	6.70265
2.44018	0.125579	2.44558
2.44293	0.160302	3.80170
2.44567	0.193907	12.4080
2.44842	0.155624	2.08114
2.45116	0.204284	7.38705
2.45390	0.155303	7.43615
2.45665	0.205032	5.95363
2.45939	0.158718	3.54453
2.46214	0.0670517	1.32870
2.46488	0.158929	4.78440
2.46763	0.0927556	3.04613
2.47037	0.185526	3.07492
2.47312	0.101035	0.984671
2.47587	0.174986	7.95918
2.47862	0.101218	1.26843
2.48138	0.0795663	6.51245
2.48413	0.277222	10.1349
2.48689	0.232086	2.80431
2.48966	0.172997	2.26329
2.49242	0.0887245	0.753717
2.49519	0.245064	7.59035
2.49796	0.111489	3.57912
2.50074	0.115976	2.64579
2.50353	0.0852143	2.93031
2.50631	0.247973	11.7057
2.50911	0.246849	2.24577
2.51191	0.0992711	0.567896
2.51472	0.109073	1.22044
2.51753	0.307825	11.5379
2.52035	0.0750230	0.469245
2.52318	0.450940	2.59154
2.52601	0.142825	1.04604
2.52886	0.303204	1.51364
2.53171	0.421345	2.06447
2.53457	0.402009	2.04441
2.53745	0.193438	0.717786
2.54033	-0.136589	0.00000
2.54322	-0.253694	0.00000
2.54613	-0.293039	0.00000
2.54905	0.304147	0.568917
2.55198	-0.710421	0.00000
2.55492	0.353934	0.649199
2.55788	0.699679	4.12468
2.56085	0.218193	1.21126
