; SpeX prism spectrum of 1733+0041 obtained 2003-05-21 by Adam J. Burgasser
; Spectrum in F_lambda normalized at 1.25-1.35 um
; Contact Dr. Burgasser for use or reproduction of this spectrum
; Wavelength (um)    Flux (normalized F_lambda)    S/N
; -------------------------------------------------------------------------
0.657680	-0.124117	0.00000
0.659865	0.296722	0.725945
0.662043	-0.235222	0.00000
0.664213	-0.222602	0.00000
0.666378	0.0561097	1.21883
0.668538	0.264353	10.0140
0.670693	0.140629	0.349460
0.672845	0.116451	1.44267
0.674994	0.318348	3.64362
0.677142	0.448552	2.96541
0.679289	0.160728	1.11954
0.681436	0.156659	1.80027
0.683583	0.635749	2.40995
0.685732	-0.217698	0.00000
0.687883	-0.327681	0.00000
0.690037	0.262924	1.29407
0.692194	0.106393	0.384713
0.694356	0.126579	1.89591
0.696522	0.661542	4.28779
0.698694	-0.00269291	0.00000
0.700872	-0.0341388	0.00000
0.703056	0.255566	9.11915
0.705248	0.00687837	0.0588966
0.707448	0.176534	5.06953
0.709656	0.182848	0.698412
0.711872	0.110131	0.675710
0.714099	0.0515948	0.776190
0.716335	0.0382139	0.999501
0.718581	0.0439454	0.277171
0.720839	-0.00770929	0.00000
0.723108	0.176274	1.88118
0.725388	0.255894	3.38024
0.727681	0.0681920	0.693507
0.729987	0.307457	8.97146
0.732305	0.513145	5.24241
0.734637	0.443320	2.84966
0.736982	0.401448	9.48444
0.739342	0.560932	4.43028
0.741716	0.363490	3.19005
0.744105	0.432407	3.86530
0.746509	0.487655	5.11267
0.748929	0.533112	7.68821
0.751364	0.684884	3.83089
0.753816	0.516049	19.2252
0.756283	0.596083	4.32049
0.758768	0.332824	3.94060
0.761269	0.343980	3.00693
0.763787	0.300049	2.20340
0.766322	0.208428	1.30609
0.768874	0.389127	6.70233
0.771445	0.235167	2.05429
0.774033	0.394388	4.54816
0.776639	0.323405	8.19279
0.779264	0.387674	15.8508
0.781907	0.287363	8.88579
0.784568	0.370159	5.85212
0.787248	0.408337	6.89028
0.789947	0.299142	8.16950
0.792665	0.484136	5.45379
0.795401	0.392908	2.88438
0.798157	0.481200	6.86635
0.800932	0.566732	5.25496
0.803727	0.718785	6.23519
0.806541	0.616467	5.40567
0.809374	0.761457	12.9559
0.812227	0.787845	6.22060
0.815099	0.793571	12.4767
0.817991	0.776073	9.61652
0.820902	0.618363	16.8337
0.823834	0.854831	12.4623
0.826785	0.746280	27.8425
0.829755	0.823214	11.2560
0.832746	0.656147	8.73050
0.835756	0.639331	5.76957
0.838786	0.694225	14.0481
0.841835	0.613342	22.3794
0.844904	0.581157	10.0462
0.847993	0.670884	9.78700
0.851102	0.475126	28.6537
0.854230	0.626900	38.3615
0.857377	0.566321	14.2404
0.860544	0.651243	10.3583
0.863730	0.625569	24.8510
0.866936	0.779242	22.4485
0.870161	0.824882	9.11619
0.873406	0.730425	60.0583
0.876669	0.815719	39.8855
0.879951	0.865145	36.9810
0.883253	0.879249	12.3196
0.886573	0.876762	18.5737
0.889912	0.846297	17.2947
0.893269	0.756319	10.0656
0.896645	0.832571	30.7148
0.900040	0.921908	51.0724
0.903453	0.793340	39.1899
0.906884	0.959583	26.5809
0.910333	0.908039	42.4907
0.913800	0.997003	40.3532
0.917285	0.924958	34.9891
0.920787	1.00042	24.7655
0.924307	1.00268	9.86606
0.927845	0.955046	73.3388
0.931399	0.910996	14.9646
0.934971	1.06981	19.8402
0.938559	0.968179	20.0175
0.942165	1.04658	43.7487
0.945787	0.974515	100.817
0.949425	0.993005	33.0248
0.953080	0.999541	89.1385
0.956750	0.943280	24.4045
0.960437	0.985008	46.2992
0.964139	0.931406	43.5948
0.967857	1.00721	18.2215
0.971591	1.05734	173.971
0.975339	0.953287	106.055
0.979103	0.962674	79.6325
0.982881	1.07399	27.4758
0.986674	1.06028	14.5209
0.990482	0.944714	23.5464
0.994304	0.929497	63.2046
0.998140	1.00053	30.1937
1.00199	0.967767	44.4921
1.00585	1.01361	24.6408
1.00973	1.05994	16.4545
1.01362	1.02735	144.890
1.01752	1.10132	43.6003
1.02144	1.07731	18.7739
1.02537	1.01096	36.0787
1.02931	1.06685	34.2875
1.03326	0.988237	23.5025
1.03723	1.08513	32.7315
1.04121	1.06496	215.800
1.04520	1.04329	51.4416
1.04920	1.05602	37.8607
1.05321	1.04170	33.6402
1.05723	1.07668	35.4377
1.06127	1.07323	64.6881
1.06531	1.06462	48.7974
1.06937	1.07134	73.3546
1.07343	1.04868	47.5387
1.07751	1.14273	26.0489
1.08159	1.07836	103.400
1.08569	1.08614	125.405
1.08979	1.13011	28.4567
1.09390	1.13034	45.4396
1.09803	1.06714	23.6877
1.10216	1.05373	25.8783
1.10630	1.06528	50.4987
1.11044	1.03614	30.0178
1.11460	1.07045	90.7283
1.11876	1.04580	25.1577
1.12294	1.01237	25.0968
1.12711	1.01215	44.5891
1.13130	0.935819	16.5312
1.13549	1.01386	14.7568
1.13969	0.970942	36.9897
1.14390	0.958634	37.2413
1.14811	1.00757	23.0936
1.15233	0.926258	22.6666
1.15656	1.01423	40.5422
1.16079	1.06416	40.8117
1.16503	1.00507	80.5289
1.16927	1.01049	47.5267
1.17352	0.969640	42.9624
1.17777	0.940217	63.7306
1.18203	1.00001	272.718
1.18629	0.980775	51.6380
1.19056	0.978228	222.751
1.19483	0.950886	20.2230
1.19910	0.964104	39.7650
1.20338	0.943529	34.1329
1.20766	1.01058	55.7679
1.21195	0.992263	29.3696
1.21624	0.987564	16.3528
1.22053	0.998460	33.3447
1.22482	1.03785	37.4953
1.22912	0.953583	23.0585
1.23342	0.962006	497.591
1.23773	0.968701	92.2151
1.24203	0.957034	32.8394
1.24634	0.947861	54.9957
1.25065	0.927362	66.9548
1.25496	0.992140	38.0322
1.25927	0.943360	47.7828
1.26358	0.985812	121.671
1.26790	0.971199	57.8867
1.27221	0.989256	37.7223
1.27653	0.934656	25.5006
1.28085	0.954364	41.2326
1.28517	0.947094	61.8788
1.28948	1.00000	238.731
1.29380	0.983090	61.0002
1.29812	0.953552	21.1879
1.30244	0.917325	57.3278
1.30675	0.956106	48.1859
1.31107	0.941490	31.0298
1.31539	0.933397	24.3653
1.31970	0.935503	28.7355
1.32402	0.916598	49.0681
1.32833	0.881945	29.3595
1.33265	0.847038	30.9865
1.33696	0.762958	45.3361
1.34127	0.716233	126.660
1.34558	0.724033	26.1388
1.34988	0.722339	29.1164
1.35419	0.700291	20.4792
1.35849	0.678657	27.0888
1.36279	0.691064	14.4274
1.36709	0.693173	40.9376
1.37138	0.669348	67.9254
1.37568	0.709594	39.4710
1.37997	0.726799	9.23892
1.38426	0.767355	17.9133
1.38854	0.621487	9.26017
1.39282	0.677770	15.7971
1.39710	0.629298	9.44241
1.40138	0.612033	15.6041
1.40565	0.591625	21.4487
1.40992	0.503661	44.5754
1.41418	0.573781	7.61842
1.41845	0.549365	57.7491
1.42270	0.601452	9.67015
1.42696	0.549245	46.9578
1.43121	0.564472	84.7336
1.43546	0.565642	29.1267
1.43970	0.562500	403.970
1.44394	0.592396	19.9593
1.44817	0.567781	42.0137
1.45240	0.606909	11.2305
1.45662	0.631521	28.7595
1.46084	0.576493	22.2944
1.46506	0.628130	42.1094
1.46927	0.621969	24.4161
1.47347	0.566580	13.1204
1.47768	0.556440	12.5439
1.48187	0.560522	9.18953
1.48606	0.663879	14.3945
1.49025	0.583574	11.3685
1.49443	0.570793	68.6021
1.49860	0.584553	23.2566
1.50277	0.563629	29.2531
1.50694	0.576379	31.3079
1.51110	0.588119	18.7339
1.51525	0.573806	14.7886
1.51940	0.530505	14.6045
1.52354	0.524823	11.0330
1.52768	0.566493	18.5080
1.53181	0.586713	19.2630
1.53593	0.550601	16.8838
1.54005	0.608911	17.7767
1.54417	0.634347	23.6537
1.54828	0.600914	48.8450
1.55238	0.587217	23.5322
1.55647	0.568338	62.6199
1.56056	0.560836	18.0919
1.56465	0.611894	119.579
1.56872	0.579499	26.5762
1.57279	0.621075	21.6421
1.57686	0.612467	11.5033
1.58092	0.548297	27.9251
1.58497	0.567414	22.4196
1.58902	0.585010	21.5131
1.59306	0.595364	18.7544
1.59709	0.639416	21.6454
1.60112	0.595128	19.1941
1.60514	0.660225	15.7155
1.60915	0.642172	13.3642
1.61316	0.622545	22.9108
1.61716	0.554762	15.3117
1.62116	0.523742	9.14890
1.62515	0.591187	33.6403
1.62913	0.595697	38.2170
1.63311	0.622855	101.395
1.63707	0.594383	21.7767
1.64104	0.541326	39.5635
1.64499	0.668942	14.0872
1.64894	0.584438	11.1063
1.65289	0.588875	21.1152
1.65682	0.574256	21.5379
1.66075	0.642902	37.2713
1.66468	0.649614	17.0296
1.66859	0.637837	17.0061
1.67250	0.617085	33.6902
1.67641	0.590288	150.105
1.68030	0.664843	95.3125
1.68419	0.636440	52.0589
1.68808	0.555506	75.4079
1.69196	0.584785	15.7142
1.69583	0.567220	25.9960
1.69969	0.606109	12.1959
1.70355	0.537759	94.4306
1.70740	0.595519	11.4760
1.71124	0.651829	42.5092
1.71508	0.553690	31.0429
1.71891	0.553485	46.9518
1.72274	0.522550	21.5919
1.72656	0.535120	21.6819
1.73037	0.521394	12.1275
1.73418	0.498743	17.1142
1.73798	0.531049	52.1017
1.74177	0.467928	32.3614
1.74556	0.498496	37.7711
1.74934	0.499452	17.4454
1.75311	0.481623	49.9639
1.75688	0.471232	19.5806
1.76064	0.452156	38.3127
1.76439	0.452695	39.0552
1.76814	0.443713	8.55388
1.77189	0.463370	44.3400
1.77562	0.441769	57.5241
1.77935	0.457123	16.0978
1.78308	0.408666	59.0385
1.78679	0.392016	12.5524
1.79051	0.396072	10.8891
1.79421	0.429704	7.06201
1.79791	0.427770	55.1587
1.80160	0.386355	6.14327
1.80529	0.419616	12.5406
1.80897	0.361323	12.9170
1.81265	0.366460	11.2973
1.81632	0.364883	20.4673
1.81998	0.384842	123.632
1.82364	0.354741	16.0293
1.82729	0.377343	35.7029
1.83094	0.349489	13.4979
1.83458	0.292016	14.9968
1.83821	0.373117	34.4622
1.84184	0.366155	11.8225
1.84546	0.282438	23.5870
1.84908	0.243946	12.9757
1.85269	0.335272	7.93853
1.85630	0.352459	6.65017
1.85990	0.317590	13.0802
1.86349	0.303656	10.1511
1.86708	0.282355	21.8583
1.87066	0.351212	14.0391
1.87424	0.296390	3.69337
1.87781	0.364848	7.29195
1.88138	0.369366	10.6248
1.88494	0.339819	8.01321
1.88850	0.334085	16.8470
1.89205	0.351047	99.9307
1.89559	0.352570	6.70260
1.89913	0.376359	14.3713
1.90267	0.327320	18.6585
1.90620	0.282975	17.1711
1.90972	0.299782	35.4054
1.91324	0.349119	24.5580
1.91675	0.312420	31.8272
1.92026	0.328869	4.72743
1.92377	0.351767	11.7414
1.92726	0.308648	7.96825
1.93076	0.279468	15.7909
1.93425	0.287596	15.3170
1.93773	0.316765	41.1517
1.94121	0.299483	13.3926
1.94468	0.328947	172.321
1.94815	0.291467	7.69560
1.95161	0.307574	6.90856
1.95507	0.260733	11.3465
1.95852	0.314025	13.5865
1.96197	0.278233	8.85935
1.96542	0.322172	7.33771
1.96886	0.361942	45.7697
1.97229	0.322143	28.7564
1.97572	0.335948	17.3588
1.97914	0.292897	27.6215
1.98256	0.287915	27.4340
1.98598	0.276843	23.3814
1.98939	0.252622	36.0843
1.99279	0.274167	13.7404
1.99620	0.269029	30.0411
1.99959	0.302383	12.0444
2.00298	0.253037	5.80973
2.00637	0.307321	4.65221
2.00975	0.257999	12.6436
2.01313	0.343261	61.6161
2.01650	0.299754	14.2169
2.01987	0.280344	10.5318
2.02324	0.278675	6.73165
2.02659	0.326474	19.7218
2.02995	0.275749	8.61979
2.03330	0.293043	10.6033
2.03664	0.273070	15.5022
2.03999	0.301881	14.6538
2.04332	0.233267	14.6731
2.04665	0.279888	10.5665
2.04998	0.234644	6.95267
2.05330	0.288718	24.1552
2.05662	0.269691	11.4971
2.05994	0.283122	35.2381
2.06325	0.283657	24.3478
2.06655	0.284918	17.8055
2.06985	0.291181	99.3132
2.07315	0.321447	16.1729
2.07644	0.289381	59.7110
2.07972	0.275051	19.7484
2.08301	0.278222	14.3468
2.08628	0.281079	17.1300
2.08956	0.312284	31.6088
2.09282	0.266347	21.7471
2.09609	0.279380	8.27877
2.09935	0.243293	37.7790
2.10260	0.270227	40.0349
2.10585	0.249602	14.4551
2.10910	0.269791	10.0072
2.11234	0.285176	20.9848
2.11558	0.257491	38.4736
2.11881	0.288941	62.6101
2.12204	0.268318	12.7641
2.12526	0.282955	22.5457
2.12848	0.281078	20.1650
2.13169	0.304556	132.721
2.13490	0.253785	46.4817
2.13811	0.281038	89.1961
2.14131	0.274613	21.1116
2.14450	0.296417	13.8045
2.14769	0.274825	17.9882
2.15088	0.252411	8.52471
2.15406	0.275616	8.09657
2.15724	0.298118	15.9758
2.16041	0.301735	57.3670
2.16357	0.290341	24.2989
2.16674	0.298238	22.1656
2.16989	0.268442	13.8129
2.17305	0.297496	88.5489
2.17620	0.254655	9.45270
2.17934	0.265529	10.9873
2.18248	0.305686	11.4793
2.18561	0.280666	14.6560
2.18874	0.271437	34.3748
2.19186	0.261175	18.6323
2.19498	0.302483	9.19581
2.19810	0.291998	12.3664
2.20121	0.294410	28.0387
2.20431	0.272468	27.3610
2.20741	0.270786	12.7140
2.21050	0.291604	10.9175
2.21359	0.273264	7.32016
2.21668	0.270585	15.7640
2.21976	0.279630	61.3178
2.22283	0.275103	11.9472
2.22590	0.309225	13.4071
2.22897	0.285813	67.2340
2.23202	0.286094	37.2713
2.23508	0.288434	12.8462
2.23813	0.310876	26.9540
2.24117	0.274885	19.5931
2.24421	0.285581	35.4411
2.24724	0.265602	118.162
2.25027	0.301972	62.6562
2.25330	0.273296	28.1457
2.25632	0.289554	26.2993
2.25933	0.249982	13.5787
2.26234	0.282265	12.9654
2.26534	0.279881	27.7189
2.26834	0.257694	43.6032
2.27133	0.270920	83.9705
2.27432	0.276462	16.9906
2.27730	0.256958	42.3777
2.28028	0.251797	10.2811
2.28325	0.318594	10.2369
2.28621	0.251911	19.7220
2.28918	0.283196	20.1907
2.29213	0.274591	10.5763
2.29508	0.253863	12.7214
2.29803	0.255118	16.8328
2.30097	0.199376	5.14243
2.30390	0.244444	17.5137
2.30683	0.214276	12.6853
2.30976	0.244355	13.6433
2.31268	0.229477	14.5964
2.31559	0.252364	30.1435
2.31850	0.223738	24.0942
2.32141	0.218598	27.1197
2.32431	0.250792	14.3124
2.32720	0.227998	19.0943
2.33009	0.251260	12.3371
2.33298	0.210634	20.2743
2.33586	0.192259	10.7807
2.33873	0.226420	20.8877
2.34160	0.251360	10.9793
2.34447	0.238936	10.9544
2.34733	0.248520	49.4927
2.35018	0.212212	10.9659
2.35303	0.215860	9.31261
2.35588	0.242917	13.5288
2.35872	0.189352	5.94481
2.36156	0.196763	11.0715
2.36439	0.219549	12.8491
2.36722	0.219939	6.83705
2.37004	0.245835	115.729
2.37286	0.199370	10.6401
2.37568	0.236101	19.5025
2.37849	0.170081	8.01122
2.38130	0.219130	42.2722
2.38410	0.189928	13.9025
2.38690	0.218898	29.8465
2.38969	0.220348	18.4484
2.39249	0.211971	13.3375
2.39527	0.181806	31.2349
2.39806	0.188616	6.51451
2.40084	0.168429	4.32742
2.40362	0.188136	11.7546
2.40639	0.165657	8.66423
2.40916	0.144071	5.53879
2.41193	0.186789	15.9855
2.41470	0.159001	22.0651
2.41746	0.176435	4.78031
2.42022	0.190602	13.7572
2.42298	0.180052	12.2406
2.42574	0.197057	21.2213
2.42849	0.186205	5.72703
2.43124	0.147892	8.23264
2.43399	0.230454	8.38069
2.43674	0.203904	5.08532
2.43949	0.159242	21.2050
2.44224	0.204666	18.5885
2.44498	0.193261	6.30442
2.44773	0.153596	9.81314
2.45047	0.182282	10.4572
2.45321	0.196935	18.2902
2.45596	0.101962	5.57260
2.45870	0.169420	8.36524
2.46145	0.182621	5.95411
2.46419	0.143227	9.19632
2.46694	0.106359	2.40429
2.46968	0.157110	8.45962
2.47243	0.180192	4.34901
2.47518	0.178125	10.0798
2.47793	0.145715	5.95615
2.48068	0.119588	1.99202
2.48344	0.123553	9.87910
2.48620	0.222077	8.56774
2.48896	0.0306893	0.596446
2.49172	0.0285823	2.99574
2.49449	0.214942	4.65753
2.49727	0.123885	2.58370
2.50004	-0.0214297	0.00000
2.50283	0.256808	2.91810
2.50561	0.0758209	1.54493
2.50841	0.129878	8.53706
2.51120	0.101008	2.57229
2.51401	0.0528483	0.755717
2.51682	0.0788892	1.29114
2.51964	0.00260142	0.0398848
2.52246	0.275775	3.11661
2.52530	0.176575	3.26504
2.52814	-0.00952751	0.00000
2.53099	0.225199	2.19997
2.53385	0.328389	2.87465
2.53672	0.00252432	0.0360330
2.53960	0.367448	8.78577
2.54249	0.0427661	0.238281
2.54540	0.0410587	0.320375
2.54831	0.440000	1.71730
2.55124	-0.414047	0.00000
2.55418	0.523767	1.35995
2.55713	0.0382822	0.283757
2.56010	-0.196939	0.00000
