; SpeX prism spectrum of 1359+3031 obtained 2003-05-21 by Adam J. Burgasser
; Spectrum in F_lambda normalized at 1.25-1.35 um
; Contact Dr. Burgasser for use or reproduction of this spectrum
; Wavelength (um)    Flux (normalized F_lambda)    S/N
; -------------------------------------------------------------------------
0.658715	0.507449	4.17155
0.660896	0.289685	2.08080
0.663070	0.144199	0.975118
0.665238	0.486363	4.12745
0.667400	-0.0679041	0.00000
0.669557	0.0957339	1.66171
0.671711	-0.0842252	0.00000
0.673862	0.144617	0.637404
0.676010	0.162895	0.753588
0.678158	0.174426	1.81107
0.680304	0.275901	1.06774
0.682451	-0.0968477	0.00000
0.684600	0.145610	1.27979
0.686749	0.140947	0.779693
0.688902	0.341424	2.43464
0.691057	0.265824	5.52641
0.693216	0.0869657	0.567918
0.695380	0.199422	2.37214
0.697549	0.481859	3.20488
0.699723	0.240910	2.68105
0.701904	0.179486	3.23274
0.704092	0.320689	7.10244
0.706287	0.129066	3.70558
0.708491	0.0609994	0.343832
0.710703	-0.00220220	0.00000
0.712924	0.0401605	1.10510
0.715155	0.202056	4.06254
0.717396	0.110819	1.24649
0.719648	0.129872	5.43101
0.721911	0.0695401	0.765910
0.724185	0.266207	5.78952
0.726471	0.141592	2.63144
0.728770	0.282820	3.02370
0.731081	0.338243	3.01593
0.733406	0.342155	11.3722
0.735744	0.508938	11.9554
0.738097	0.453252	13.2707
0.740463	0.543499	13.8978
0.742844	0.367873	6.16965
0.745241	0.471089	4.40996
0.747652	0.456826	27.6144
0.750079	0.501790	11.6943
0.752522	0.565722	7.88486
0.754981	0.502683	43.4121
0.757456	0.561618	34.5388
0.759948	0.432539	18.8680
0.762457	0.402555	16.1368
0.764983	0.257086	4.89498
0.767527	0.142278	5.29978
0.770088	0.239027	6.33627
0.772667	0.301234	18.8453
0.775263	0.262582	6.09496
0.777878	0.297420	26.1611
0.780511	0.309767	12.2190
0.783163	0.265632	30.3732
0.785833	0.402610	12.1357
0.788522	0.330471	4.92330
0.791230	0.318028	6.42803
0.793957	0.429833	216.801
0.796702	0.390534	17.8784
0.799467	0.501850	42.4448
0.802252	0.564926	12.9478
0.805055	0.706342	8.34178
0.807878	0.716967	9.80970
0.810721	0.665635	36.9620
0.813583	0.783780	17.9762
0.816464	0.741605	46.4898
0.819366	0.789460	90.5163
0.822286	0.737503	88.4348
0.825227	0.767120	27.4235
0.828187	0.747839	38.7421
0.831167	0.700051	23.0249
0.834167	0.702159	51.4728
0.837186	0.645775	35.6184
0.840226	0.711396	63.6953
0.843284	0.540486	8.99746
0.846363	0.495041	24.7997
0.849461	0.510876	18.8615
0.852579	0.482753	19.4680
0.855716	0.541484	39.8769
0.858873	0.608502	25.5530
0.862049	0.643535	72.3047
0.865244	0.673369	20.2745
0.868459	0.604489	15.5407
0.871693	0.722652	25.1735
0.874947	0.724962	90.7989
0.878219	0.795660	39.4852
0.881510	0.860450	17.7893
0.884821	0.786562	41.1507
0.888150	0.787954	45.3933
0.891497	0.777508	79.7509
0.894864	0.739074	169.146
0.898249	0.831332	86.0860
0.901652	0.868614	330.941
0.905073	0.938075	71.4514
0.908513	0.957797	46.3322
0.911970	1.00307	43.4966
0.915446	1.02779	33.1407
0.918939	1.07891	77.0590
0.922450	1.02448	29.1406
0.925978	0.939053	19.5640
0.929524	0.938530	32.8555
0.933086	0.919616	49.9420
0.936666	1.03494	41.7679
0.940263	0.953371	42.2809
0.943876	1.02081	50.2303
0.947505	1.02790	38.9916
0.951152	1.03333	20.2134
0.954814	1.00691	59.0068
0.958492	1.01453	37.7285
0.962186	1.01541	33.9837
0.965896	1.03026	308.441
0.969621	1.07293	37.9113
0.973362	1.03553	217.916
0.977117	1.03921	77.7019
0.980888	1.02394	40.8202
0.984674	1.07428	63.8150
0.988474	0.966344	54.3267
0.992288	0.973882	240.451
0.996116	0.996990	51.0145
0.999959	0.994699	88.5698
1.00382	1.01034	100.459
1.00769	0.998216	130.133
1.01157	1.03492	141.430
1.01547	1.03709	138.037
1.01937	1.02928	32.5243
1.02330	1.02822	84.4781
1.02723	1.07969	56.1586
1.03118	1.05426	93.7603
1.03514	1.04188	183.401
1.03911	1.05478	35.3773
1.04309	1.09370	112.619
1.04709	1.08903	59.4026
1.05109	1.10876	71.7146
1.05511	1.10817	95.0691
1.05914	1.07763	103.289
1.06318	1.06701	53.7800
1.06723	1.10635	150.712
1.07129	1.08615	1156.53
1.07536	1.11066	54.0802
1.07944	1.10706	75.2943
1.08353	1.13690	43.8442
1.08763	1.15741	28.8354
1.09174	1.07774	418.003
1.09585	1.11011	58.5706
1.09998	1.11412	531.847
1.10411	1.08277	502.558
1.10826	1.07458	91.0505
1.11241	1.07736	47.8433
1.11657	1.06638	116.798
1.12074	1.07302	43.0706
1.12491	1.04087	63.6253
1.12909	1.06381	107.542
1.13328	1.00892	57.8855
1.13748	0.993892	34.7536
1.14168	0.933353	48.6213
1.14589	1.00401	37.7720
1.15011	0.954188	91.7865
1.15433	1.01608	41.2311
1.15856	0.971849	86.5713
1.16279	1.00828	32.5622
1.16703	1.00620	85.2424
1.17128	0.970463	177.035
1.17553	0.989203	136.931
1.17978	0.983040	124.624
1.18404	0.970702	152.869
1.18831	0.973698	102.906
1.19257	0.989523	183.764
1.19685	0.949023	66.6164
1.20112	0.926563	48.4401
1.20540	0.987792	33.6502
1.20969	0.964175	98.1719
1.21398	0.984646	75.7534
1.21827	1.00049	64.4909
1.22256	1.00363	51.3547
1.22686	1.01055	181.263
1.23116	0.979450	120.574
1.23546	0.989069	32.9213
1.23976	0.979629	85.7201
1.24407	0.948993	54.1673
1.24838	0.975467	35.7513
1.25269	0.977202	44.5539
1.25700	0.963387	36.4280
1.26131	0.986441	83.3204
1.26562	1.00000	20.6300
1.26994	0.997556	212.406
1.27426	0.974619	35.3140
1.27857	0.971082	34.2185
1.28289	0.982811	31.8237
1.28721	0.978196	47.3054
1.29153	0.990416	76.7543
1.29584	0.997379	47.3502
1.30016	0.986208	185.485
1.30448	0.946958	131.229
1.30880	0.935357	75.1057
1.31311	0.930428	45.1721
1.31743	0.940233	515.006
1.32175	0.913141	112.670
1.32606	0.933095	601.643
1.33037	0.830631	93.2007
1.33469	0.788663	50.0437
1.33900	0.733606	168.685
1.34331	0.717050	61.1877
1.34761	0.700096	165.829
1.35192	0.696094	34.8606
1.35622	0.693136	28.7938
1.36052	0.655461	24.5496
1.36482	0.699519	22.7729
1.36912	0.615072	44.1374
1.37342	0.675363	49.6623
1.37771	0.647362	22.7276
1.38200	0.632310	29.0119
1.38628	0.662664	65.6310
1.39057	0.631024	43.3619
1.39485	0.582284	323.791
1.39912	0.624947	76.7848
1.40340	0.592584	11.3525
1.40767	0.600776	17.8663
1.41194	0.621981	92.7724
1.41620	0.569927	21.7322
1.42046	0.553911	20.6183
1.42472	0.549099	49.2630
1.42897	0.575685	67.3581
1.43322	0.553982	37.1423
1.43746	0.562606	100000.
1.44170	0.537282	39.5565
1.44594	0.579378	70.9398
1.45017	0.564633	58.1467
1.45440	0.597940	24.8145
1.45862	0.555537	15.9166
1.46284	0.553926	51.5557
1.46705	0.575227	42.2808
1.47126	0.546235	39.9050
1.47546	0.571511	72.6557
1.47966	0.576262	42.3951
1.48385	0.525787	31.4837
1.48804	0.539556	43.6209
1.49223	0.560456	36.8816
1.49640	0.566078	39.3118
1.50058	0.535145	29.5918
1.50474	0.554356	41.3953
1.50891	0.546371	33.6198
1.51306	0.525871	118.617
1.51721	0.556915	69.3194
1.52136	0.532943	28.0213
1.52550	0.568835	21.0254
1.52963	0.569581	40.6652
1.53376	0.578951	21.0475
1.53788	0.582146	45.2055
1.54200	0.547247	28.2730
1.54611	0.572524	93.4341
1.55022	0.560142	39.7015
1.55432	0.591235	40.3335
1.55841	0.581536	61.0554
1.56249	0.544779	41.3149
1.56658	0.588868	224.688
1.57065	0.564323	37.8038
1.57472	0.593336	72.3467
1.57878	0.610378	53.2229
1.58284	0.605852	55.9234
1.58689	0.550667	15.1123
1.59093	0.549829	35.8668
1.59497	0.593611	34.7817
1.59900	0.589958	134.628
1.60302	0.593601	57.1898
1.60704	0.580611	44.3071
1.61105	0.613541	36.3279
1.61506	0.553709	22.6522
1.61905	0.578619	13.5126
1.62305	0.587665	43.5599
1.62703	0.588988	15.0784
1.63101	0.607133	114.488
1.63498	0.596993	86.8906
1.63895	0.597643	26.8362
1.64291	0.604074	36.6957
1.64686	0.596698	125.751
1.65081	0.561714	33.7510
1.65475	0.593766	620.101
1.65868	0.611065	100000.
1.66261	0.616262	65.1258
1.66653	0.664151	480.889
1.67044	0.629096	57.0110
1.67435	0.594402	71.6745
1.67825	0.628815	44.7272
1.68214	0.617440	53.9868
1.68603	0.595120	64.0434
1.68991	0.620437	30.7526
1.69379	0.622384	36.7888
1.69765	0.537316	24.2990
1.70152	0.570765	41.1186
1.70537	0.580943	174.727
1.70922	0.560791	29.2667
1.71306	0.560897	21.9076
1.71690	0.563531	29.8649
1.72072	0.530730	63.5080
1.72455	0.541875	70.5467
1.72836	0.512576	35.3120
1.73217	0.543578	75.1042
1.73597	0.515385	41.5551
1.73977	0.515103	26.1224
1.74356	0.501376	69.6068
1.74734	0.487056	20.2835
1.75112	0.459616	28.4511
1.75489	0.484585	71.0247
1.75866	0.471402	127.659
1.76242	0.462022	45.8294
1.76617	0.459710	29.0484
1.76991	0.406205	48.7727
1.77365	0.421999	83.7437
1.77739	0.420754	23.4964
1.78111	0.406508	29.8101
1.78484	0.399645	33.9116
1.78855	0.414488	25.8673
1.79226	0.374500	193.581
1.79596	0.413370	36.0084
1.79966	0.405677	29.9924
1.80335	0.375482	22.7277
1.80703	0.359351	20.4779
1.81071	0.362783	21.7653
1.81438	0.410785	129.723
1.81805	0.393215	28.3432
1.82171	0.382593	54.4383
1.82537	0.388051	27.9554
1.82901	0.309255	89.2994
1.83266	0.358282	34.6095
1.83630	0.386837	9.16545
1.83993	0.361797	14.5118
1.84355	0.312926	28.4045
1.84717	0.309627	11.1990
1.85079	0.292606	17.2398
1.85440	0.292205	10.6349
1.85800	0.293958	12.2513
1.86160	0.290889	18.6610
1.86519	0.334996	27.7578
1.86877	0.328498	12.5185
1.87235	0.340331	33.1297
1.87593	0.304948	9.68889
1.87950	0.317994	15.8208
1.88306	0.266460	59.0018
1.88662	0.342065	31.2713
1.89018	0.297828	40.5921
1.89372	0.335969	19.1878
1.89727	0.286401	11.0219
1.90081	0.320464	18.5259
1.90434	0.292121	12.9585
1.90786	0.360132	34.3117
1.91139	0.346429	38.8481
1.91490	0.277819	16.5411
1.91841	0.296394	9.92369
1.92192	0.299247	68.1355
1.92542	0.329389	76.9372
1.92892	0.326671	46.3664
1.93241	0.291763	8.87677
1.93589	0.326823	12.6135
1.93938	0.305543	9.15031
1.94285	0.317188	90.5734
1.94632	0.308768	24.4874
1.94979	0.310703	21.5893
1.95325	0.286993	67.0290
1.95671	0.299838	16.6346
1.96016	0.317713	20.8128
1.96360	0.309892	25.3320
1.96704	0.319097	55.6946
1.97048	0.292855	22.8708
1.97391	0.268879	37.5752
1.97734	0.295059	12.3199
1.98076	0.253282	26.6901
1.98418	0.282191	26.7997
1.98759	0.293542	77.1350
1.99100	0.271252	48.4010
1.99440	0.259400	27.4807
1.99780	0.306499	32.1407
2.00120	0.338114	12.4624
2.00459	0.246309	4.83480
2.00797	0.245358	6.76161
2.01135	0.264230	8.83477
2.01473	0.255923	21.9908
2.01810	0.252645	268.971
2.02146	0.272629	18.1771
2.02482	0.265413	106.681
2.02818	0.264928	90.8921
2.03153	0.263667	40.3999
2.03488	0.265391	63.5647
2.03823	0.290924	25.8418
2.04156	0.287914	28.3823
2.04490	0.297100	26.5813
2.04823	0.268003	29.0947
2.05155	0.267240	10.5277
2.05487	0.280074	24.8827
2.05819	0.290572	16.9017
2.06150	0.258775	44.3807
2.06481	0.264638	27.5569
2.06811	0.273254	18.7891
2.07141	0.281964	37.5278
2.07470	0.266157	50.4887
2.07799	0.286718	45.9519
2.08128	0.269878	136.664
2.08456	0.288173	58.7528
2.08783	0.268861	17.6044
2.09110	0.288123	54.5982
2.09437	0.272182	69.1519
2.09763	0.293348	46.3537
2.10089	0.278131	30.9041
2.10414	0.297491	31.1757
2.10739	0.277558	37.0327
2.11063	0.274355	46.8660
2.11387	0.292900	98.2996
2.11711	0.294972	62.0131
2.12034	0.277482	25.9378
2.12356	0.265286	25.2716
2.12678	0.282346	21.5849
2.13000	0.270344	20.7334
2.13321	0.294126	178.731
2.13642	0.281080	33.5609
2.13962	0.283838	34.2705
2.14282	0.300421	135.891
2.14601	0.293807	41.3857
2.14920	0.309303	59.9463
2.15238	0.286277	22.2565
2.15556	0.300715	40.3370
2.15874	0.285720	28.4090
2.16191	0.262571	111.041
2.16507	0.285190	38.8047
2.16823	0.298348	11.7202
2.17139	0.288203	50.2787
2.17454	0.275387	73.0384
2.17768	0.285405	22.4868
2.18082	0.262406	78.5097
2.18396	0.298979	32.4188
2.18709	0.298137	12.7357
2.19022	0.280002	32.3917
2.19334	0.292823	26.3568
2.19646	0.304857	81.5770
2.19957	0.290100	46.2137
2.20267	0.271226	39.7103
2.20578	0.271657	72.1655
2.20887	0.274971	23.2903
2.21197	0.287522	26.8817
2.21505	0.280798	70.4118
2.21813	0.262705	33.8482
2.22121	0.272794	65.4151
2.22428	0.284268	65.4104
2.22735	0.298934	34.1530
2.23041	0.295902	24.8843
2.23347	0.298050	120.831
2.23652	0.302579	21.7863
2.23957	0.298571	29.3868
2.24261	0.279419	49.7501
2.24565	0.294173	29.5619
2.24868	0.281540	21.6901
2.25170	0.301061	17.4551
2.25473	0.282718	27.5208
2.25774	0.287355	25.2236
2.26075	0.274974	29.8545
2.26376	0.283903	100000.
2.26676	0.280865	92.0202
2.26975	0.280118	29.8406
2.27274	0.290408	36.9721
2.27573	0.284426	37.6531
2.27871	0.289396	35.2965
2.28168	0.250647	19.7333
2.28465	0.277566	100000.
2.28762	0.279752	31.0866
2.29057	0.272936	100000.
2.29353	0.250692	51.2442
2.29648	0.264638	104.808
2.29942	0.258653	31.7773
2.30236	0.250962	19.7345
2.30529	0.255788	18.9214
2.30822	0.254125	30.2418
2.31114	0.249616	33.9149
2.31406	0.259978	15.2888
2.31697	0.239066	16.7787
2.31988	0.232336	19.3693
2.32278	0.218414	54.6861
2.32568	0.222526	31.4274
2.32857	0.243655	19.9122
2.33146	0.259247	15.3058
2.33434	0.242989	23.9015
2.33722	0.245912	8.34224
2.34009	0.231370	9.46251
2.34296	0.232204	13.1038
2.34582	0.237687	16.3962
2.34868	0.239842	102.697
2.35153	0.218288	26.0063
2.35438	0.201990	10.6955
2.35722	0.216225	19.2551
2.36006	0.234000	13.8236
2.36290	0.195376	100.573
2.36573	0.226814	33.5606
2.36856	0.215150	24.7606
2.37138	0.219650	24.4169
2.37419	0.224869	30.9485
2.37701	0.242979	18.4886
2.37982	0.204974	37.6682
2.38262	0.202349	10.3096
2.38542	0.213360	67.2869
2.38822	0.195028	63.2048
2.39101	0.192041	39.9457
2.39380	0.206726	19.8125
2.39659	0.204067	29.9494
2.39937	0.190533	13.1460
2.40215	0.185745	38.1103
2.40493	0.194310	13.6166
2.40770	0.179305	11.0279
2.41047	0.151413	53.2623
2.41324	0.196449	35.3480
2.41600	0.161334	11.0099
2.41877	0.210298	17.6614
2.42153	0.225679	92.4036
2.42428	0.210020	42.4779
2.42704	0.177284	13.6527
2.42979	0.197577	6.72509
2.43254	0.189009	14.5392
2.43529	0.157460	12.4663
2.43804	0.153911	15.6455
2.44079	0.188532	19.0588
2.44353	0.171280	28.7942
2.44628	0.119242	11.2121
2.44902	0.138206	12.9187
2.45177	0.206995	20.9550
2.45451	0.163044	8.19990
2.45726	0.180149	9.25983
2.46000	0.142896	11.2810
2.46274	0.142467	13.1694
2.46549	0.154473	21.3687
2.46823	0.140833	14.5751
2.47098	0.137759	12.0111
2.47373	0.144553	7.37911
2.47648	0.131263	3.37458
2.47923	0.164300	16.7402
2.48199	0.152961	7.86600
2.48474	0.187918	17.5240
2.48750	0.158026	3.62851
2.49027	0.163486	12.2717
2.49303	0.0854135	6.91813
2.49580	0.163180	29.5944
2.49858	0.124664	6.97637
2.50136	0.121482	3.26001
2.50414	0.139825	6.73219
2.50693	0.138750	3.15594
2.50973	0.129822	4.23695
2.51253	0.0938987	1.85260
2.51534	0.225188	12.1937
2.51815	0.123979	1.15417
2.52097	0.192381	6.63272
2.52380	0.151750	3.53692
2.52664	0.123429	2.62361
2.52949	0.141428	2.15701
2.53234	0.206431	1.17265
2.53521	-0.00995501	0.00000
2.53808	0.177266	0.689082
2.54097	0.211782	3.48539
2.54387	0.101504	0.306907
2.54677	0.198391	0.638932
2.54969	0.0461719	0.371108
2.55263	0.155688	0.599232
2.55557	0.00432885	0.0567930
2.55853	0.120886	2.05479
2.56151	0.131212	2.30580
