; SpeX prism spectrum of 1254-0122 obtained 2003-05-22 by Adam J. Burgasser
; Spectrum in F_lambda normalized at 1.25-1.35 um
; Contact Dr. Burgasser for use or reproduction of this spectrum
; Wavelength (um)    Flux (normalized F_lambda)    S/N
; -------------------------------------------------------------------------
0.657948	0.00747323	0.102796
0.660132	0.0457500	1.34783
0.662308	-0.0231338	0.00000
0.664478	0.0594407	0.666930
0.666642	-0.129864	0.00000
0.668801	-0.0702471	0.00000
0.670956	-0.115405	0.00000
0.673108	-0.126617	0.00000
0.675257	0.101915	4.06947
0.677404	0.0640410	1.99181
0.679551	0.130333	1.26803
0.681698	0.0163864	0.326138
0.683846	0.104065	3.72836
0.685995	-0.115408	0.00000
0.688146	-0.113327	0.00000
0.690300	-0.0507809	0.00000
0.692458	-0.0521607	0.00000
0.694620	0.0447635	0.856332
0.696787	0.0266839	0.300149
0.698960	0.0126382	0.181505
0.701138	0.00144751	0.0395780
0.703324	0.00700926	0.123505
0.705516	-0.00264573	0.00000
0.707717	0.0224593	0.358179
0.709926	0.0287459	0.613495
0.712144	0.0662993	1.97157
0.714371	0.0309828	0.492133
0.716609	0.0203346	0.799020
0.718857	-0.0180548	0.00000
0.721115	0.00450741	0.0503288
0.723386	-0.0454766	0.00000
0.725668	0.0915613	3.52861
0.727962	0.00963243	0.303128
0.730269	0.0272225	0.703887
0.732589	0.0469470	1.47663
0.734923	0.0826976	2.32113
0.737270	0.0136169	0.393267
0.739631	0.000125140	0.00962951
0.742007	0.0412444	1.83208
0.744398	0.0319085	1.18927
0.746804	0.0310017	1.60538
0.749226	0.0157934	1.27825
0.751663	0.0223497	2.23534
0.754116	-0.0454164	0.00000
0.756586	-0.000431948	0.00000
0.759072	-0.0318531	0.00000
0.761575	-0.00521050	0.00000
0.764095	0.0647011	1.52891
0.766633	-0.0121996	0.00000
0.769188	-0.00675574	0.00000
0.771760	0.00248355	0.0939469
0.774351	-0.00883610	0.00000
0.776959	-0.0212572	0.00000
0.779586	0.0322233	0.803904
0.782231	0.00501897	0.335265
0.784894	-0.0261897	0.00000
0.787577	0.00352179	0.255868
0.790278	0.0119243	0.602515
0.792998	-0.00264257	0.00000
0.795737	0.0131413	0.740985
0.798495	0.0145584	0.729828
0.801273	0.00968962	1.97874
0.804070	0.0247688	0.900206
0.806886	-0.0226170	0.00000
0.809721	-0.00469990	0.00000
0.812577	-0.00625591	0.00000
0.815451	0.0384925	2.79691
0.818346	0.0375116	2.25063
0.821260	0.0186395	1.15026
0.824193	0.0265941	2.66492
0.827147	0.00858435	0.677453
0.830120	0.0239850	2.04431
0.833113	0.0348618	1.48545
0.836125	0.0449625	5.05380
0.839157	0.0304159	1.79633
0.842209	0.0461413	4.27966
0.845281	0.0570891	2.69038
0.848372	0.0560138	2.77381
0.851483	0.0526345	3.87513
0.854613	0.0400736	7.16207
0.857763	0.0618753	7.44846
0.860932	0.0816777	6.63641
0.864121	0.0691066	11.9867
0.867329	0.0752926	9.03594
0.870557	0.0704143	14.8246
0.873803	0.0787248	5.41168
0.877069	0.106499	16.0000
0.880354	0.115288	17.7732
0.883657	0.0987891	10.5250
0.886980	0.130101	11.3864
0.890321	0.108960	9.21268
0.893681	0.121222	6.43798
0.897059	0.153319	10.4413
0.900456	0.148407	11.7543
0.903871	0.184757	16.3276
0.907304	0.186625	10.2040
0.910756	0.181104	14.4760
0.914225	0.180321	11.6197
0.917712	0.237493	11.9125
0.921216	0.221674	47.1693
0.924739	0.234360	18.4175
0.928278	0.191971	18.7594
0.931835	0.179859	20.6266
0.935408	0.233640	6.72017
0.938999	0.236034	20.7096
0.942606	0.259132	21.8815
0.946230	0.296994	25.0784
0.949871	0.251978	43.8254
0.953527	0.273496	40.4038
0.957200	0.276049	48.1368
0.960889	0.294422	20.0513
0.964593	0.296501	56.5789
0.968313	0.340073	46.5984
0.972048	0.339766	37.3386
0.975798	0.372247	38.9020
0.979564	0.397092	143.255
0.983344	0.379299	36.3714
0.987139	0.409159	73.9888
0.990948	0.408049	46.4777
0.994772	0.404740	15.9833
0.998609	0.404424	40.6032
1.00246	0.400033	87.9860
1.00633	0.415568	47.9826
1.01020	0.449194	38.9663
1.01410	0.461017	35.0058
1.01800	0.490545	22.3621
1.02192	0.495194	47.0051
1.02585	0.521933	43.7089
1.02979	0.543480	69.4138
1.03375	0.572456	30.4451
1.03772	0.583402	67.9123
1.04169	0.585004	76.0289
1.04569	0.640819	40.9352
1.04969	0.626274	64.2717
1.05370	0.657016	67.1579
1.05773	0.651974	73.0406
1.06176	0.675624	95.0967
1.06581	0.690214	60.6139
1.06986	0.697105	143.617
1.07393	0.704054	73.8202
1.07801	0.722748	83.9240
1.08209	0.721899	81.4785
1.08619	0.717785	78.2602
1.09029	0.696354	56.2090
1.09441	0.639281	46.2783
1.09853	0.583825	112.382
1.10266	0.558568	143.213
1.10680	0.529553	50.8007
1.11095	0.488622	36.6750
1.11511	0.448306	43.7783
1.11927	0.457895	125.384
1.12345	0.465553	123.697
1.12763	0.474962	46.9209
1.13181	0.470926	32.6219
1.13601	0.422196	24.4136
1.14021	0.443717	71.9635
1.14441	0.445806	33.8707
1.14863	0.479762	60.6040
1.15285	0.496386	148.345
1.15708	0.475899	34.6541
1.16131	0.461025	21.5890
1.16554	0.454196	49.4008
1.16979	0.447916	24.0831
1.17404	0.452665	50.3074
1.17829	0.489918	85.4925
1.18255	0.506998	116.282
1.18681	0.581432	113.558
1.19108	0.626686	43.4134
1.19535	0.651824	38.5198
1.19962	0.681835	34.0779
1.20390	0.716368	96.2814
1.20819	0.743488	45.9818
1.21247	0.765376	252.428
1.21676	0.800788	313.104
1.22105	0.793001	34.0896
1.22535	0.843587	106.497
1.22965	0.876700	117.609
1.23395	0.880974	168.009
1.23825	0.880895	107.101
1.24256	0.869972	276.353
1.24686	0.867230	75.6350
1.25117	0.884053	109.834
1.25549	0.910351	143.874
1.25980	0.944683	121.907
1.26411	0.994644	186.891
1.26843	0.991790	81.4698
1.27274	0.991948	67.0887
1.27706	1.00000	83.7019
1.28138	0.983804	43.1722
1.28569	0.965208	122.259
1.29001	0.966277	134.765
1.29433	0.958654	62.2036
1.29865	0.951609	159.145
1.30296	0.945891	35.4619
1.30728	0.929745	105.690
1.31160	0.895702	95.9990
1.31592	0.876353	157.160
1.32023	0.845432	80.6896
1.32455	0.782940	81.4974
1.32886	0.647721	36.5704
1.33317	0.487281	43.1339
1.33748	0.320642	53.4666
1.34179	0.227535	42.0144
1.34610	0.181029	53.9877
1.35041	0.159577	24.4688
1.35471	0.134608	7.86764
1.35902	0.132949	17.6993
1.36332	0.149792	12.3420
1.36761	0.139053	37.1006
1.37191	0.147200	28.9809
1.37620	0.167659	9.25369
1.38049	0.194414	26.1577
1.38478	0.203987	12.3741
1.38906	0.188641	21.5940
1.39335	0.175581	21.6349
1.39762	0.139195	14.3987
1.40190	0.172053	12.0358
1.40617	0.173589	17.3353
1.41044	0.145018	10.9530
1.41471	0.139165	11.2262
1.41897	0.144419	111.868
1.42322	0.148013	15.7006
1.42748	0.141109	9.69966
1.43173	0.130611	16.7126
1.43597	0.153078	36.8485
1.44022	0.164583	9.97316
1.44445	0.176200	20.6659
1.44869	0.179447	35.9018
1.45291	0.211069	23.6256
1.45714	0.206538	63.8199
1.46136	0.242571	50.0149
1.46557	0.238938	18.0098
1.46978	0.242730	21.3320
1.47399	0.268532	22.0305
1.47819	0.280147	38.7691
1.48238	0.272232	67.4921
1.48657	0.276939	58.4286
1.49076	0.299592	34.4062
1.49494	0.309996	39.7339
1.49911	0.326138	37.0985
1.50328	0.350129	45.9803
1.50745	0.355117	39.8834
1.51161	0.368060	19.0097
1.51576	0.429688	71.6491
1.51991	0.425197	55.4049
1.52405	0.462527	29.5069
1.52818	0.481126	35.9111
1.53231	0.520467	119.594
1.53644	0.513224	30.3678
1.54056	0.539540	104.168
1.54467	0.575596	42.6705
1.54878	0.599341	42.9319
1.55288	0.624297	78.4926
1.55697	0.619952	47.6109
1.56106	0.624456	102.260
1.56514	0.642704	49.4659
1.56922	0.656883	97.7221
1.57329	0.706910	106.678
1.57736	0.718320	143.525
1.58141	0.720681	54.4326
1.58547	0.740389	72.4901
1.58951	0.741564	82.9095
1.59355	0.747316	133.252
1.59758	0.775167	85.2235
1.60161	0.766478	147.511
1.60563	0.751952	94.5330
1.60964	0.719668	76.3617
1.61365	0.701411	63.6900
1.61765	0.683515	112.537
1.62165	0.684966	78.6724
1.62563	0.677618	47.7666
1.62962	0.656340	314.098
1.63359	0.641957	94.9611
1.63756	0.652930	275.735
1.64152	0.658276	117.545
1.64548	0.657075	77.5643
1.64943	0.668832	69.2188
1.65337	0.667547	67.5985
1.65730	0.667399	209.906
1.66123	0.665133	103.865
1.66515	0.656954	41.0680
1.66907	0.611102	58.7418
1.67298	0.611211	53.5867
1.67688	0.592874	32.2128
1.68078	0.622121	101.177
1.68467	0.629832	203.126
1.68855	0.645312	234.764
1.69243	0.625887	67.7240
1.69630	0.610067	44.4091
1.70016	0.595211	142.524
1.70402	0.578300	73.6773
1.70787	0.559330	35.1238
1.71171	0.554688	112.559
1.71555	0.534591	62.2898
1.71938	0.528725	45.9891
1.72321	0.520394	113.171
1.72702	0.505658	149.579
1.73084	0.492371	50.5663
1.73464	0.468068	148.706
1.73844	0.459222	23.9213
1.74223	0.396446	18.8834
1.74602	0.406886	66.8909
1.74980	0.383377	72.5356
1.75357	0.371030	29.8825
1.75734	0.354545	73.4057
1.76110	0.337539	34.5980
1.76485	0.339565	30.2301
1.76860	0.308870	35.2605
1.77234	0.265518	37.7777
1.77608	0.263900	23.6113
1.77981	0.262627	92.3071
1.78353	0.244488	28.3412
1.78725	0.234827	31.5173
1.79096	0.233258	42.9971
1.79466	0.236671	40.7373
1.79836	0.216503	57.3947
1.80205	0.207516	38.4624
1.80574	0.193390	11.3223
1.80942	0.212223	20.5390
1.81310	0.215600	13.3397
1.81677	0.218951	12.8360
1.82043	0.218376	43.8343
1.82408	0.221790	19.9525
1.82774	0.214015	100.486
1.83138	0.239259	75.1751
1.83502	0.197521	14.4093
1.83865	0.198516	14.4354
1.84228	0.195009	25.0251
1.84590	0.190898	17.6528
1.84952	0.185634	27.9256
1.85313	0.190947	11.9166
1.85674	0.185696	20.0103
1.86033	0.153761	31.0424
1.86393	0.140600	15.9436
1.86752	0.155748	27.5637
1.87110	0.180309	13.2914
1.87468	0.166362	25.4204
1.87825	0.187027	11.7250
1.88181	0.196857	13.2640
1.88538	0.207699	46.9980
1.88893	0.196775	21.3291
1.89248	0.226439	25.4290
1.89603	0.223048	30.1467
1.89956	0.239324	20.8621
1.90310	0.227118	32.2780
1.90663	0.246852	26.5560
1.91015	0.237951	41.7671
1.91367	0.263298	22.6899
1.91718	0.278813	101.960
1.92069	0.261580	47.9882
1.92419	0.237714	19.8908
1.92769	0.231240	52.9998
1.93118	0.213420	23.2814
1.93467	0.183529	31.4080
1.93816	0.181359	31.2039
1.94163	0.159198	23.8541
1.94511	0.181800	28.8899
1.94857	0.168412	32.3029
1.95204	0.185694	33.8541
1.95549	0.183300	102.936
1.95895	0.182504	24.7183
1.96239	0.163823	33.1597
1.96584	0.182381	36.1301
1.96928	0.190700	25.3759
1.97271	0.190560	28.8912
1.97614	0.196299	18.0925
1.97956	0.191848	32.5508
1.98298	0.191824	25.8069
1.98640	0.189495	45.0925
1.98981	0.204365	71.8295
1.99321	0.207517	47.8022
1.99661	0.211207	25.5810
2.00001	0.225260	36.6982
2.00340	0.218844	18.7614
2.00678	0.234922	21.5925
2.01017	0.251512	19.9677
2.01354	0.223801	59.8208
2.01692	0.260168	57.3078
2.02028	0.256226	77.7200
2.02365	0.256776	46.5527
2.02700	0.274358	22.0824
2.03036	0.277899	45.1938
2.03371	0.294500	26.7299
2.03705	0.289813	29.1452
2.04039	0.286541	45.2215
2.04373	0.310910	57.6717
2.04706	0.311726	102.935
2.05039	0.311708	56.4451
2.05371	0.322409	27.5779
2.05703	0.322512	20.8968
2.06034	0.332768	36.9261
2.06365	0.345050	45.1354
2.06695	0.342274	53.5588
2.07025	0.350702	49.1352
2.07355	0.352425	77.6678
2.07684	0.349510	146.163
2.08012	0.359577	77.2735
2.08341	0.356459	313.559
2.08668	0.352645	52.4626
2.08996	0.360626	60.1278
2.09322	0.350871	25.5730
2.09649	0.356706	216.297
2.09975	0.367947	92.8744
2.10300	0.364454	139.412
2.10625	0.359408	91.5077
2.10950	0.360531	204.615
2.11274	0.373415	651.394
2.11597	0.363216	42.7780
2.11920	0.364238	773.549
2.12243	0.366561	28.5543
2.12565	0.355875	86.8903
2.12887	0.362957	34.6942
2.13208	0.355027	49.7396
2.13529	0.350218	53.1825
2.13850	0.364246	56.8826
2.14170	0.353174	91.9703
2.14489	0.344289	62.6516
2.14808	0.345825	72.6161
2.15127	0.337847	45.3067
2.15445	0.353557	79.7226
2.15762	0.327885	41.9202
2.16079	0.332202	80.4764
2.16396	0.321124	69.9710
2.16712	0.325536	78.1945
2.17028	0.320141	61.0932
2.17343	0.314943	56.4876
2.17658	0.315914	44.8288
2.17972	0.304928	62.9410
2.18286	0.298159	96.2401
2.18599	0.286974	69.9955
2.18912	0.283160	63.7577
2.19224	0.270370	47.1495
2.19536	0.273508	31.9664
2.19848	0.236670	15.1469
2.20159	0.244960	27.6395
2.20469	0.218270	23.2488
2.20779	0.207634	21.6569
2.21088	0.213153	42.0996
2.21397	0.233449	30.1298
2.21705	0.223229	54.6686
2.22013	0.215139	34.5587
2.22321	0.216790	150.706
2.22628	0.224695	81.1868
2.22934	0.224907	32.9403
2.23240	0.209677	29.3680
2.23545	0.220055	48.9098
2.23850	0.208508	56.8361
2.24154	0.204945	72.6141
2.24458	0.205105	106.617
2.24762	0.199552	73.4308
2.25064	0.188186	18.9235
2.25367	0.196600	30.8043
2.25668	0.182270	30.3395
2.25970	0.199111	59.1909
2.26270	0.185409	39.3393
2.26571	0.188258	38.6730
2.26870	0.184788	23.5150
2.27170	0.169790	22.3743
2.27468	0.176653	65.6861
2.27766	0.178932	23.8207
2.28064	0.175320	50.4832
2.28361	0.170301	34.2079
2.28658	0.170232	23.3398
2.28954	0.170539	29.4101
2.29249	0.150670	99.7933
2.29544	0.131124	19.7302
2.29839	0.127280	18.7591
2.30133	0.127654	28.7538
2.30426	0.148472	22.0227
2.30719	0.137164	15.9247
2.31012	0.150467	15.1238
2.31304	0.151160	12.6403
2.31595	0.140857	9.09789
2.31886	0.124159	41.0087
2.32176	0.124595	10.3952
2.32466	0.115720	18.2355
2.32756	0.108489	13.7892
2.33045	0.108715	8.80597
2.33333	0.107677	18.4237
2.33621	0.115690	18.0729
2.33908	0.117713	13.6351
2.34195	0.108795	10.1042
2.34482	0.110986	17.1193
2.34768	0.119973	8.24367
2.35053	0.117424	14.7629
2.35338	0.115134	30.3513
2.35623	0.115937	20.5288
2.35907	0.134117	10.2454
2.36191	0.131457	19.6455
2.36474	0.124972	31.0535
2.36756	0.127000	15.9939
2.37039	0.119311	6.77059
2.37321	0.115695	28.4708
2.37602	0.115849	8.77362
2.37883	0.104031	8.10899
2.38164	0.0978229	9.98134
2.38444	0.130913	8.37682
2.38724	0.119285	33.8742
2.39003	0.135964	59.3735
2.39283	0.117634	23.9639
2.39561	0.142162	27.6408
2.39840	0.130412	23.7504
2.40118	0.144686	17.1904
2.40396	0.146050	20.5901
2.40673	0.128493	55.7377
2.40950	0.134288	35.0244
2.41227	0.152487	14.4757
2.41504	0.146662	7.02195
2.41780	0.134416	30.6373
2.42056	0.143373	16.3127
2.42332	0.140085	11.4637
2.42607	0.144523	12.8477
2.42883	0.132084	11.5079
2.43158	0.148695	11.0261
2.43433	0.156612	12.4414
2.43708	0.137714	20.5359
2.43983	0.137114	40.6428
2.44257	0.129825	23.0017
2.44532	0.138590	19.4100
2.44806	0.137872	22.2472
2.45081	0.150299	13.5340
2.45355	0.133601	5.46476
2.45629	0.122679	6.99011
2.45904	0.109762	24.8246
2.46178	0.140614	10.3611
2.46453	0.125866	11.8281
2.46727	0.136122	5.75649
2.47002	0.128099	7.79502
2.47277	0.111173	8.48802
2.47552	0.109785	8.35232
2.47827	0.125924	9.28526
2.48102	0.128765	4.55232
2.48378	0.142709	9.61271
2.48654	0.105839	4.49427
2.48930	0.126053	23.7502
2.49206	0.114932	7.95361
2.49483	0.132741	5.13264
2.49761	0.129738	8.03743
2.50038	0.132561	3.47814
2.50317	0.0780920	5.91120
2.50595	0.0954056	9.62595
2.50875	0.108219	4.19702
2.51155	0.152909	11.5126
2.51435	0.0893154	9.11637
2.51716	0.109203	4.41301
2.51998	0.0799528	2.75973
2.52281	0.123535	2.33305
2.52565	0.0958551	4.20604
2.52849	0.0805438	5.20603
2.53134	0.104652	2.56965
2.53420	0.173042	2.23873
2.53707	0.0905853	1.02780
2.53996	0.0369359	1.61152
2.54285	0.0693810	1.37645
2.54575	0.0970030	1.85215
2.54867	0.160873	1.50506
2.55160	0.202421	2.30683
2.55454	0.129711	0.987198
2.55749	0.0323640	0.741743
2.56046	0.116788	1.14258
