; SpeX prism spectrum of 1524+0934 obtained 2003-05-22 by Adam J. Burgasser
; Spectrum in F_lambda normalized at 1.25-1.35 um
; Contact Dr. Burgasser for use or reproduction of this spectrum
; Wavelength (um)    Flux (normalized F_lambda)    S/N
; -------------------------------------------------------------------------
0.658283	0.127094	0.507343
0.660466	-0.143674	0.00000
0.662642	-0.445502	0.00000
0.664811	-0.104083	0.00000
0.666974	-0.197350	0.00000
0.669132	0.534576	1.10932
0.671286	0.0989859	0.316470
0.673438	0.146077	0.339620
0.675587	-0.298607	0.00000
0.677734	0.103678	0.277459
0.679881	0.144978	0.954418
0.682028	0.327631	0.170731
0.684176	-0.226823	0.00000
0.686325	0.285876	2.67321
0.688477	0.0888451	0.327457
0.690631	0.221847	1.53437
0.692790	0.338904	3.13771
0.694952	0.196918	0.607983
0.697120	0.235632	0.854218
0.699294	0.167501	1.80209
0.701473	0.0118568	0.0910459
0.703660	0.269167	1.55914
0.705854	0.180611	7.63311
0.708055	0.216671	2.40909
0.710266	-0.0889136	0.00000
0.712485	0.0849213	1.23511
0.714714	-0.144845	0.00000
0.716953	0.203027	8.20304
0.719203	-0.0165986	0.00000
0.721463	-0.105671	0.00000
0.723735	0.0151617	0.193963
0.726019	0.175971	3.35483
0.728315	0.0664599	0.782641
0.730624	0.211941	7.67715
0.732946	0.252579	4.95171
0.735282	0.229801	4.73380
0.737631	0.462666	10.0891
0.739995	0.394212	5.91288
0.742373	0.374508	3.89081
0.744767	0.350766	4.49558
0.747175	0.239001	6.96652
0.749599	0.213122	3.88681
0.752039	0.173919	0.987743
0.754494	0.226115	2.08993
0.756966	0.277505	6.11683
0.759455	0.0963989	0.381297
0.761961	0.148545	0.653077
0.764484	0.149699	1.62991
0.767024	0.205249	1.65393
0.769581	0.162261	2.27738
0.772156	0.0544517	2.75312
0.774750	-0.0111424	0.00000
0.777361	0.123576	1.84268
0.779990	0.200180	16.8595
0.782638	0.152321	1.78979
0.785305	0.185398	2.65629
0.787990	0.254701	6.19140
0.790694	0.145911	1.09551
0.793417	0.363853	2.25427
0.796159	0.268970	2.27016
0.798920	0.309479	5.50529
0.801701	0.416011	4.26397
0.804500	0.464997	3.40722
0.807320	0.514558	8.27148
0.810158	0.505221	4.44705
0.813016	0.552429	4.10412
0.815894	0.656004	5.20460
0.818791	0.573436	27.0260
0.821708	0.532161	10.7296
0.824645	0.404684	8.37100
0.827602	0.565006	3.08120
0.830578	0.546640	7.13855
0.833573	0.546628	132.209
0.836589	0.578250	5.46406
0.839624	0.440179	10.3400
0.842679	0.526596	6.14309
0.845754	0.398189	7.67036
0.848848	0.481432	12.3371
0.851962	0.429061	32.1740
0.855095	0.445930	6.93095
0.858248	0.451648	14.7551
0.861420	0.520366	12.2060
0.864612	0.554448	8.99649
0.867823	0.470776	908.608
0.871054	0.516235	10.0492
0.874303	0.547303	11.1170
0.877572	0.618163	25.5212
0.880859	0.660022	44.3340
0.884166	0.607222	28.8161
0.887491	0.610848	15.0218
0.890835	0.588202	18.6197
0.894198	0.657398	103.241
0.897579	0.695207	19.9239
0.900979	0.702992	10.7293
0.904397	0.611544	5.13619
0.907833	0.713582	19.1716
0.911287	0.817136	13.8008
0.914759	0.952020	8.09275
0.918248	0.858328	46.0095
0.921756	0.762210	24.0724
0.925281	0.756141	113.905
0.928823	0.817096	22.7751
0.932382	0.776690	19.0661
0.935958	0.811718	29.3702
0.939552	0.774348	14.8871
0.943161	0.821291	36.5601
0.946788	0.864049	56.7613
0.950431	0.873727	62.6628
0.954090	0.926735	28.2051
0.957765	0.864121	16.4979
0.961456	0.916773	15.8457
0.965163	0.848588	28.6063
0.968885	0.920089	69.3566
0.972622	0.946052	15.8993
0.976375	0.911387	29.6755
0.980143	0.944956	37.7071
0.983925	0.900982	34.5585
0.987723	0.850814	23.6347
0.991534	0.869516	255.216
0.995360	0.751895	147.650
0.999200	0.808789	25.4941
1.00305	0.798211	45.5783
1.00692	0.838132	46.5774
1.01080	0.829673	55.3875
1.01470	0.837688	55.3315
1.01860	0.869993	35.4577
1.02252	0.857938	17.9104
1.02645	0.862496	20.9603
1.03040	0.870292	49.4649
1.03436	0.926314	27.3330
1.03833	0.989400	20.0791
1.04231	0.964261	296.323
1.04630	0.921922	26.4893
1.05030	0.969883	38.1144
1.05432	0.925309	42.5598
1.05834	0.937630	235.549
1.06238	0.923142	92.2032
1.06643	0.970221	69.1771
1.07049	0.953206	39.4407
1.07455	0.980747	21.7184
1.07863	0.985248	32.9412
1.08272	1.01744	23.2714
1.08682	1.08784	54.7113
1.09092	1.00887	52.0169
1.09504	1.01882	56.3674
1.09916	0.976393	106.490
1.10330	0.976742	80.2260
1.10744	0.992930	44.6567
1.11159	1.01973	125.039
1.11575	0.964972	45.1726
1.11991	0.998231	105.994
1.12409	0.972433	25.3945
1.12827	0.966578	480.908
1.13246	0.948962	43.2258
1.13665	0.944067	24.0975
1.14085	0.872071	24.0399
1.14506	0.864714	23.3871
1.14928	0.972781	22.8176
1.15350	0.967731	29.2756
1.15772	0.973224	37.4935
1.16196	0.990219	67.1284
1.16620	0.972047	222.303
1.17044	0.921952	294.740
1.17469	0.882945	71.9874
1.17894	0.914371	31.8725
1.18320	0.910088	40.5845
1.18746	0.931522	54.7504
1.19173	0.902136	73.9521
1.19600	0.895615	32.7193
1.20028	0.847565	82.2503
1.20456	0.872131	36.5375
1.20884	0.931446	49.9091
1.21313	0.955313	43.3119
1.21742	0.873305	18.4489
1.22171	0.891659	22.6766
1.22601	0.976349	85.6721
1.23031	0.905778	53.9457
1.23461	0.904764	53.3945
1.23891	0.866087	40.4948
1.24322	0.859852	54.9940
1.24753	0.833708	54.2028
1.25184	0.893078	42.8246
1.25615	0.897136	58.1602
1.26046	0.909821	14.1826
1.26477	0.910266	47.7579
1.26909	0.961205	35.2190
1.27340	0.927811	14.8442
1.27772	0.913008	32.3316
1.28204	0.927468	13.5530
1.28636	1.00000	54.8411
1.29067	0.946102	461.137
1.29499	0.927930	21.8571
1.29931	0.912377	40.1925
1.30363	0.948961	58.8881
1.30794	0.936577	23.2207
1.31226	0.952373	30.0315
1.31658	0.876543	114.545
1.32089	0.880047	171.411
1.32521	0.894761	46.6594
1.32952	0.812762	60.0610
1.33383	0.791179	48.5305
1.33815	0.725797	81.2310
1.34246	0.683061	25.1055
1.34676	0.653476	29.2773
1.35107	0.675811	23.9537
1.35537	0.701471	21.9958
1.35968	0.614090	27.8980
1.36398	0.546948	24.7753
1.36827	0.640902	17.8067
1.37257	0.584002	46.4050
1.37686	0.588672	116.542
1.38115	0.606800	81.7381
1.38544	0.664374	12.0163
1.38972	0.646259	28.0991
1.39400	0.650348	19.3718
1.39828	0.626794	11.1296
1.40256	0.530209	40.1124
1.40683	0.586362	13.9665
1.41110	0.512683	14.2845
1.41536	0.543023	29.0658
1.41962	0.530023	63.1226
1.42388	0.514741	28.3069
1.42813	0.540468	20.5081
1.43238	0.514493	93.4332
1.43663	0.594587	12.3466
1.44087	0.576326	22.8145
1.44510	0.540525	52.6359
1.44933	0.517965	22.6039
1.45356	0.548519	30.1044
1.45779	0.501315	15.3349
1.46201	0.561881	11.4814
1.46622	0.547295	14.8959
1.47043	0.543036	13.7172
1.47463	0.555063	24.3199
1.47883	0.563542	28.6169
1.48303	0.532955	23.0860
1.48722	0.504522	16.6184
1.49140	0.569655	60.0677
1.49558	0.515276	83.7685
1.49975	0.559250	17.4960
1.50392	0.607730	23.7391
1.50809	0.537894	33.3217
1.51224	0.543538	14.2126
1.51639	0.569065	10.0449
1.52054	0.549930	9.69323
1.52468	0.564799	14.6858
1.52882	0.534501	17.0100
1.53295	0.628954	12.0243
1.53707	0.528621	13.8042
1.54119	0.568340	40.6323
1.54530	0.583936	60.7699
1.54941	0.560887	17.9758
1.55351	0.615730	25.3739
1.55760	0.574132	28.7956
1.56169	0.563531	24.9842
1.56577	0.646202	24.8220
1.56985	0.600782	25.9397
1.57392	0.565030	20.2673
1.57798	0.651509	29.2264
1.58204	0.641879	14.6517
1.58609	0.575463	66.3974
1.59013	0.553753	24.0935
1.59417	0.566047	58.4142
1.59820	0.599400	16.6845
1.60223	0.655106	39.3110
1.60625	0.512487	19.8923
1.61026	0.545879	21.3932
1.61427	0.551270	20.1120
1.61827	0.582280	10.5015
1.62226	0.575830	23.4899
1.62625	0.574576	18.1038
1.63023	0.562878	38.3602
1.63420	0.602354	80.3335
1.63817	0.566243	92.6971
1.64213	0.538623	156.484
1.64608	0.546005	28.3641
1.65003	0.563307	50.1268
1.65397	0.607272	217.897
1.65791	0.583819	19.4057
1.66183	0.562811	19.7612
1.66576	0.589483	26.2906
1.66967	0.544777	40.0036
1.67358	0.538571	20.4302
1.67748	0.544342	26.9280
1.68138	0.627535	87.6222
1.68527	0.600541	81.1956
1.68915	0.579904	41.5212
1.69302	0.566487	105.979
1.69689	0.568598	29.9681
1.70075	0.523583	10.0626
1.70461	0.537621	42.3485
1.70846	0.515274	25.1560
1.71230	0.521413	21.0000
1.71614	0.522123	12.8368
1.71997	0.533278	25.9231
1.72379	0.499619	19.9889
1.72761	0.543402	28.9829
1.73142	0.488317	36.6534
1.73522	0.458088	39.1051
1.73902	0.512964	35.4596
1.74281	0.469347	24.5740
1.74660	0.503784	28.9766
1.75038	0.455030	11.3119
1.75415	0.452401	13.2084
1.75792	0.451228	28.6293
1.76168	0.448285	62.1068
1.76543	0.402999	7.99911
1.76918	0.397212	9.68031
1.77292	0.399446	11.6066
1.77665	0.421768	33.4601
1.78038	0.418016	40.9646
1.78410	0.401394	27.0171
1.78782	0.346349	29.1055
1.79153	0.405200	16.9847
1.79523	0.329496	16.1926
1.79893	0.383902	11.6953
1.80262	0.372493	12.3410
1.80631	0.329425	5.23574
1.80999	0.361043	53.7497
1.81366	0.329317	12.0644
1.81733	0.403856	16.7205
1.82099	0.355699	13.6301
1.82465	0.375614	15.9519
1.82830	0.343109	11.0133
1.83194	0.340084	7.15200
1.83558	0.376556	14.6856
1.83921	0.296541	4.35240
1.84284	0.388939	52.6484
1.84646	0.303244	6.56995
1.85007	0.287185	6.13125
1.85368	0.251698	31.1789
1.85729	0.271223	25.3578
1.86089	0.266314	15.3553
1.86448	0.302896	28.9269
1.86807	0.400336	24.2796
1.87165	0.363868	10.5492
1.87522	0.297793	5.42327
1.87880	0.226629	7.58749
1.88236	0.313747	80.3119
1.88592	0.322415	130.990
1.88948	0.291261	13.6463
1.89303	0.335053	16.1126
1.89657	0.329158	25.2944
1.90011	0.332243	50.4981
1.90364	0.282673	66.1927
1.90717	0.319285	29.4070
1.91069	0.298031	16.9627
1.91421	0.312082	18.3209
1.91772	0.334963	36.6981
1.92123	0.295685	5.21800
1.92473	0.313587	45.6457
1.92823	0.302546	46.8869
1.93172	0.259308	15.4544
1.93521	0.278833	17.8636
1.93869	0.322055	11.0970
1.94217	0.300209	69.8320
1.94564	0.262619	31.3010
1.94910	0.287924	36.9567
1.95257	0.300592	29.0863
1.95602	0.235725	16.3312
1.95948	0.256729	18.2929
1.96292	0.293551	7.13174
1.96637	0.255215	27.6721
1.96980	0.280424	23.1583
1.97324	0.308825	10.6109
1.97666	0.254474	12.3867
1.98009	0.249071	13.2627
1.98351	0.237809	10.6822
1.98692	0.265624	31.4518
1.99033	0.265141	29.9913
1.99373	0.280423	27.4368
1.99713	0.263724	19.1617
2.00053	0.313534	17.8680
2.00392	0.263963	11.9534
2.00730	0.277007	18.5288
2.01068	0.239847	21.9704
2.01406	0.314122	219.481
2.01743	0.256668	37.0003
2.02080	0.279142	9.30753
2.02416	0.284618	8.27666
2.02752	0.283763	29.9062
2.03087	0.280904	8.95676
2.03422	0.292042	7.10485
2.03757	0.266499	17.7882
2.04091	0.222829	8.98854
2.04424	0.268275	32.7008
2.04757	0.214519	11.9840
2.05090	0.279153	10.7473
2.05422	0.315761	18.3312
2.05754	0.250871	6.73132
2.06085	0.237428	22.3152
2.06416	0.258135	23.7424
2.06746	0.261032	19.0502
2.07076	0.273188	15.1691
2.07405	0.280196	21.2380
2.07734	0.251460	22.0584
2.08063	0.274890	67.2692
2.08391	0.287371	22.6571
2.08719	0.252925	34.6849
2.09046	0.257373	10.5592
2.09372	0.264477	34.5256
2.09699	0.260619	19.7481
2.10025	0.275438	48.3905
2.10350	0.276155	180.767
2.10675	0.245836	11.3996
2.10999	0.276955	20.4996
2.11323	0.269656	20.3576
2.11647	0.289773	53.9887
2.11970	0.246761	7.33654
2.12293	0.249986	23.7778
2.12615	0.311750	30.6735
2.12936	0.298770	214.344
2.13258	0.248706	9.84688
2.13579	0.277518	31.5869
2.13899	0.252816	27.4806
2.14219	0.276658	50.9473
2.14538	0.278984	13.3320
2.14857	0.271126	25.3488
2.15176	0.310356	13.3044
2.15494	0.248527	33.9660
2.15811	0.303094	10.5830
2.16128	0.302290	199.391
2.16445	0.243483	39.8007
2.16761	0.288138	19.8883
2.17076	0.284551	18.4520
2.17392	0.263027	68.6295
2.17706	0.286479	14.9039
2.18020	0.279485	13.2513
2.18334	0.281348	37.4873
2.18647	0.260413	14.1891
2.18960	0.276262	44.1205
2.19272	0.307239	27.9654
2.19584	0.313953	20.6327
2.19895	0.264330	75.6316
2.20206	0.296065	58.2078
2.20516	0.285782	8.62009
2.20826	0.269227	22.6184
2.21136	0.250736	43.3421
2.21444	0.299084	6.81578
2.21753	0.299588	9.63264
2.22061	0.279953	32.1731
2.22368	0.279897	45.6300
2.22675	0.272805	11.9109
2.22981	0.273391	137.513
2.23287	0.273200	15.6744
2.23592	0.283440	22.1110
2.23897	0.268500	18.5331
2.24201	0.271771	46.5880
2.24505	0.282519	434.193
2.24808	0.282059	13.3675
2.25111	0.293865	42.5184
2.25413	0.255080	9.65148
2.25715	0.253863	39.6804
2.26016	0.290748	59.6057
2.26316	0.263496	10.2974
2.26617	0.252830	24.6415
2.26916	0.238737	22.2895
2.27215	0.278313	18.5671
2.27514	0.290338	44.3352
2.27812	0.255187	16.6104
2.28110	0.275505	27.6057
2.28407	0.266619	52.3819
2.28703	0.261159	21.9272
2.28999	0.260194	20.2822
2.29295	0.248080	30.7008
2.29590	0.202776	15.7798
2.29884	0.201834	7.37683
2.30178	0.203710	19.4051
2.30471	0.245775	15.6639
2.30764	0.234864	22.6709
2.31057	0.263640	20.2402
2.31348	0.222090	16.8818
2.31640	0.203594	12.8456
2.31931	0.257447	27.4333
2.32221	0.224858	16.7058
2.32511	0.228095	8.16050
2.32800	0.211892	24.4482
2.33089	0.229329	16.9150
2.33377	0.204994	85.9385
2.33665	0.243897	11.9129
2.33952	0.221303	8.68136
2.34239	0.195853	7.96109
2.34526	0.213358	25.4023
2.34812	0.231581	23.0846
2.35097	0.247145	16.2428
2.35382	0.161829	5.57098
2.35666	0.213256	115.620
2.35950	0.183939	7.82373
2.36234	0.197971	58.0943
2.36517	0.185916	12.0705
2.36800	0.215043	9.73206
2.37082	0.181797	10.7126
2.37364	0.204362	15.7713
2.37645	0.222626	7.86396
2.37926	0.207807	8.61674
2.38207	0.208417	6.01693
2.38487	0.188135	4.40777
2.38767	0.173956	49.7751
2.39046	0.191295	38.9771
2.39325	0.230130	13.7294
2.39604	0.157042	7.46611
2.39882	0.185467	13.9329
2.40160	0.197020	16.5109
2.40438	0.186688	7.61915
2.40716	0.188768	11.6969
2.40993	0.195520	13.4398
2.41269	0.133839	7.49764
2.41546	0.151142	9.16452
2.41822	0.152603	11.5942
2.42098	0.128572	5.62331
2.42374	0.150743	21.0498
2.42650	0.154545	11.0772
2.42925	0.203532	33.8056
2.43200	0.178113	4.49965
2.43475	0.112894	2.03152
2.43750	0.155659	9.39422
2.44025	0.0986075	1.94914
2.44299	0.143708	13.1099
2.44574	0.180924	6.92892
2.44848	0.131261	9.72695
2.45123	0.135350	23.3149
2.45397	0.106469	3.21171
2.45671	0.145432	3.95718
2.45946	0.151882	4.73799
2.46220	0.197128	3.12015
2.46495	0.139940	5.56395
2.46769	0.0909208	3.66408
2.47044	0.166164	6.42195
2.47319	0.0978303	4.92614
2.47594	0.113886	3.80378
2.47869	0.135757	4.48393
2.48144	0.124776	13.6725
2.48420	0.108806	5.85405
2.48696	0.112585	2.73627
2.48972	0.134100	3.53962
2.49249	0.0138892	0.664397
2.49526	0.0528427	0.484695
2.49803	0.182146	2.40488
2.50081	0.134400	3.31278
2.50359	0.162079	4.05250
2.50638	0.0894596	1.77779
2.50918	0.0880748	1.53958
2.51198	0.202586	8.28743
2.51478	0.0734809	1.50568
2.51760	0.121426	3.19544
2.52042	0.120681	4.02939
2.52324	0.102776	4.57364
2.52608	0.142139	2.20554
2.52893	0.249264	1.50259
2.53178	0.155167	1.21800
2.53464	-0.179613	0.00000
2.53752	0.135291	1.76849
2.54040	0.316992	4.10482
2.54329	0.206718	12.9676
2.54620	0.478584	4.33665
2.54912	0.151286	1.52033
2.55205	0.0227400	0.211914
2.55499	0.116141	0.470796
2.55795	0.197650	0.790981
2.56092	0.132599	1.32430
