; SpeX prism spectrum of 0147+2120 obtained 2003-09-18 by Adam J. Burgasser
; Spectrum in F_lambda normalized at 1.25-1.35 um
; Contact Dr. Burgasser for use or reproduction of this spectrum
; Wavelength (um)    Flux (normalized F_lambda)    S/N
; -------------------------------------------------------------------------
0.659306	0.686984	5.86015
0.661485	0.139966	1.87874
0.663657	0.0255810	0.173312
0.665823	-0.00576039	0.00000
0.667984	0.204191	1.35367
0.670140	0.0278222	0.0960584
0.672293	0.0293330	0.0797694
0.674443	-0.104462	0.00000
0.676591	0.574094	6.91220
0.678738	0.497798	1.57049
0.680885	-0.0599694	0.00000
0.683032	-0.184381	0.00000
0.685181	-0.0843658	0.00000
0.687331	-0.154707	0.00000
0.689484	-0.244278	0.00000
0.691640	0.0742685	0.760173
0.693801	0.129969	0.467686
0.695966	0.0760469	0.241029
0.698136	0.0657859	0.170725
0.700312	0.320416	7.05145
0.702495	0.0757391	0.708251
0.704685	0.237766	1.44676
0.706882	0.0805269	0.450172
0.709088	0.333708	1.61129
0.711303	0.102134	0.510038
0.713527	0.183010	2.68770
0.715760	0.115765	0.924143
0.718004	0.185429	0.985777
0.720259	0.137709	0.731262
0.722524	0.0537380	0.402917
0.724802	0.00821711	0.0507371
0.727092	0.241100	2.05000
0.729394	0.229940	2.32122
0.731709	0.430540	6.81270
0.734037	0.352974	3.98570
0.736379	0.169951	7.64125
0.738735	0.218558	5.07389
0.741106	0.366872	11.4309
0.743491	0.263523	1.52429
0.745891	0.333084	15.1241
0.748307	0.394521	24.4370
0.750738	0.319316	26.5297
0.753185	0.420323	5.70468
0.755649	0.460064	4.41540
0.758129	0.169337	4.10743
0.760625	0.457057	5.87433
0.763139	0.170448	9.79265
0.765670	0.241854	4.61687
0.768218	0.110982	1.93765
0.770784	0.0767047	0.748736
0.773367	0.125765	19.1476
0.775969	0.258644	9.02677
0.778589	0.119534	13.5411
0.781227	0.171882	9.19886
0.783883	0.262670	6.43568
0.786559	0.234964	12.5833
0.789253	0.235068	3.89530
0.791965	0.259330	6.46743
0.794697	0.391878	8.84896
0.797448	0.263983	11.6293
0.800218	0.306032	10.6146
0.803008	0.448499	12.5818
0.805817	0.531256	37.3621
0.808645	0.487702	19.8298
0.811493	0.577193	93.0777
0.814360	0.630093	34.9361
0.817247	0.556193	72.1115
0.820153	0.592179	17.4332
0.823080	0.620180	7.44879
0.826026	0.558110	65.3821
0.828991	0.527123	20.4446
0.831977	0.571515	17.5515
0.834982	0.593539	27.9118
0.838006	0.503407	13.7992
0.841051	0.508519	28.5557
0.844115	0.401391	20.3404
0.847199	0.411901	14.0589
0.850302	0.441483	30.9178
0.853425	0.395376	8.86162
0.856568	0.462988	24.4503
0.859730	0.469780	16.1425
0.862911	0.502585	7.76695
0.866112	0.462678	7.43558
0.869332	0.516911	24.9949
0.872571	0.566366	25.8183
0.875830	0.539321	20.1065
0.879107	0.602997	10.8591
0.882404	0.607342	9.24622
0.885719	0.599981	37.5264
0.889053	0.601893	93.1378
0.892406	0.550881	13.1781
0.895777	0.684214	26.1373
0.899167	0.677035	108.861
0.902575	0.708259	22.7290
0.906002	0.724094	24.5945
0.909446	0.750666	110.874
0.912909	0.772027	31.8359
0.916389	0.849159	55.4713
0.919887	0.759780	738.807
0.923402	0.786364	141.777
0.926935	0.772982	21.5602
0.930486	0.805373	21.3296
0.934053	0.758631	30.5874
0.937637	0.822900	126.960
0.941238	0.852637	44.1913
0.944856	0.813659	34.9270
0.948490	0.870941	122.403
0.952140	0.860146	21.1914
0.955807	0.907880	128.542
0.959490	0.883365	230.645
0.963188	0.858840	42.1553
0.966902	0.878097	173.183
0.970631	0.916171	47.8798
0.974376	0.920199	98.5228
0.978136	0.938535	80.7243
0.981910	0.900084	85.7864
0.985700	0.852830	29.5567
0.989504	0.780573	101.886
0.993322	0.743585	46.1883
0.997154	0.832281	27.0444
1.00100	0.828810	85.5477
1.00486	0.879989	44.8906
1.00873	0.843079	35.1124
1.01262	0.864395	53.3969
1.01652	0.900403	49.4358
1.02043	0.836006	56.4926
1.02436	0.799537	51.7145
1.02830	0.886703	735.558
1.03225	0.876139	60.7780
1.03621	0.911164	70.2439
1.04019	0.923478	63.2581
1.04417	0.942316	33.8062
1.04817	0.946317	100.360
1.05218	0.972162	65.7805
1.05620	0.909882	101.978
1.06023	0.902995	201.135
1.06427	0.924961	118.882
1.06833	0.915957	322.923
1.07239	0.962571	43.6403
1.07646	0.975922	67.6889
1.08054	1.01288	104.883
1.08464	1.04510	97.1003
1.08874	1.06568	131.290
1.09285	1.04211	42.8651
1.09697	0.944440	39.8008
1.10110	1.01051	57.4182
1.10523	0.939606	109.229
1.10938	1.00558	60.1304
1.11353	1.00534	24.4853
1.11769	0.966852	94.4544
1.12186	1.00398	93.5117
1.12604	0.955447	194.117
1.13023	0.969389	39.2138
1.13442	0.867775	59.0189
1.13862	0.877929	33.4312
1.14282	0.920567	43.4693
1.14703	0.958893	286.474
1.15125	1.01519	33.2012
1.15547	0.973367	46.9899
1.15970	0.969458	79.0957
1.16394	0.989235	63.9918
1.16818	0.941000	303.581
1.17243	0.919378	49.8840
1.17668	0.909742	91.0088
1.18093	0.937134	78.2317
1.18519	0.935190	119.229
1.18946	0.928164	67.4286
1.19373	0.879841	60.8855
1.19800	0.865913	92.6442
1.20228	0.881196	61.2484
1.20656	0.894644	84.9013
1.21085	0.910284	71.4719
1.21514	0.923954	80.3331
1.21943	0.957951	67.4137
1.22372	0.953343	91.4885
1.22802	0.949514	36.1661
1.23232	0.950974	62.7131
1.23662	0.924311	313.976
1.24093	0.903292	72.1168
1.24523	0.878337	358.742
1.24954	0.883539	132.511
1.25385	0.882723	160.046
1.25816	0.934019	260.108
1.26248	0.968786	103.651
1.26679	0.948847	297.288
1.27111	0.953356	44.7016
1.27542	0.966622	33.3242
1.27974	0.966890	95.5137
1.28406	1.00000	97.1129
1.28838	0.930201	42.2486
1.29269	0.966774	82.0693
1.29701	0.938350	125.345
1.30133	0.936027	207.794
1.30565	0.963138	40.6166
1.30996	0.900761	51.5982
1.31428	0.921635	518.188
1.31860	0.916079	56.0073
1.32291	0.936996	100000.
1.32723	0.885587	53.2739
1.33154	0.844610	59.9914
1.33585	0.761967	45.2491
1.34016	0.747030	79.1989
1.34447	0.753849	50.7727
1.34878	0.722258	35.2627
1.35308	0.734321	12.6062
1.35739	0.769492	94.8114
1.36169	0.767343	93.5552
1.36599	0.791890	18.5326
1.37028	0.733367	30.3747
1.37458	0.689883	47.8353
1.37887	0.690088	579.696
1.38316	0.772961	20.7667
1.38744	0.669145	49.2779
1.39172	0.702877	102.506
1.39600	0.697444	112.608
1.40028	0.655513	9.22151
1.40455	0.719714	101.673
1.40882	0.611037	16.6093
1.41309	0.631266	31.8421
1.41735	0.586295	84.9677
1.42161	0.605551	37.1391
1.42587	0.633365	75.7380
1.43012	0.618821	29.6849
1.43437	0.600512	22.8697
1.43861	0.635560	154.489
1.44285	0.643949	36.6992
1.44708	0.668545	33.3984
1.45131	0.621464	30.6228
1.45554	0.622349	32.0749
1.45976	0.616897	37.1976
1.46398	0.614501	68.2462
1.46819	0.593895	21.2294
1.47240	0.616430	19.2545
1.47660	0.638481	341.670
1.48080	0.624257	64.0757
1.48499	0.588162	38.3948
1.48917	0.630598	29.1281
1.49336	0.629865	20.9800
1.49753	0.632078	22.9480
1.50170	0.642784	36.4113
1.50587	0.622873	85.6329
1.51003	0.581202	87.2804
1.51419	0.619781	37.0058
1.51834	0.634981	164.104
1.52248	0.633427	37.9233
1.52662	0.623109	158.839
1.53075	0.628990	45.9752
1.53488	0.580131	36.8279
1.53900	0.650443	53.4329
1.54311	0.628043	152.673
1.54722	0.641100	71.2060
1.55133	0.601346	23.4985
1.55542	0.577995	10.8455
1.55951	0.580907	11.6827
1.56360	0.593099	17.6474
1.56768	0.612328	79.1519
1.57175	0.652398	92.1965
1.57582	0.650407	80.0128
1.57988	0.681806	53.8833
1.58393	0.636428	19.4845
1.58798	0.642990	41.1076
1.59202	0.596396	29.5917
1.59606	0.664402	93.2623
1.60009	0.652046	100.527
1.60411	0.649733	63.5906
1.60812	0.639836	66.3999
1.61213	0.590563	53.7978
1.61614	0.621182	32.2678
1.62013	0.623663	76.8218
1.62412	0.638858	111.840
1.62811	0.638677	52.7728
1.63209	0.626056	96.5635
1.63606	0.652731	155.530
1.64002	0.630091	133.730
1.64398	0.625511	76.7857
1.64793	0.644609	363.134
1.65188	0.645392	78.4645
1.65581	0.653606	244.436
1.65974	0.646520	61.2108
1.66367	0.669804	47.9800
1.66759	0.633294	58.3733
1.67150	0.623017	29.9785
1.67541	0.620863	267.982
1.67930	0.646193	110.194
1.68320	0.629443	82.9467
1.68708	0.642367	33.9338
1.69096	0.656940	61.7210
1.69483	0.617946	31.3755
1.69870	0.613188	33.7466
1.70256	0.635757	32.3724
1.70641	0.627267	43.3536
1.71026	0.621548	74.8474
1.71410	0.608376	53.2775
1.71793	0.598253	67.1218
1.72176	0.568448	318.834
1.72558	0.568904	113.628
1.72939	0.576070	82.6688
1.73320	0.604891	139.069
1.73700	0.552027	46.3661
1.74080	0.545209	61.0019
1.74459	0.517566	100000.
1.74837	0.550360	131.763
1.75214	0.526059	76.8666
1.75591	0.513379	61.4112
1.75967	0.519711	66.2064
1.76343	0.483451	32.5199
1.76718	0.499796	51.0367
1.77093	0.503415	52.0609
1.77466	0.484561	100000.
1.77840	0.457463	26.8007
1.78212	0.480091	30.2048
1.78584	0.457960	26.0054
1.78955	0.450172	56.2258
1.79326	0.429672	22.3648
1.79696	0.402382	104.070
1.80066	0.459398	49.4165
1.80435	0.446842	37.1157
1.80803	0.388984	7.39793
1.81171	0.444688	25.4507
1.81538	0.478164	39.8491
1.81904	0.459878	24.3433
1.82270	0.445225	21.0831
1.82635	0.446141	21.2963
1.83000	0.475595	16.8601
1.83364	0.435187	11.1753
1.83728	0.435980	47.8028
1.84091	0.322063	8.34585
1.84453	0.318635	15.9614
1.84815	0.326019	14.8988
1.85176	0.385086	52.1325
1.85537	0.354322	11.2742
1.85897	0.397729	12.3830
1.86257	0.373667	11.2799
1.86616	0.440299	17.4291
1.86974	0.358299	9.87568
1.87332	0.392927	4.61596
1.87690	0.414518	13.9585
1.88046	0.385860	16.2035
1.88403	0.387216	27.5742
1.88758	0.398058	11.8154
1.89114	0.370256	25.5147
1.89468	0.354961	27.3978
1.89822	0.429391	13.7476
1.90176	0.410519	13.5388
1.90529	0.330397	26.3485
1.90882	0.333804	25.8065
1.91234	0.341569	32.9208
1.91585	0.347455	6.40097
1.91936	0.341643	46.0094
1.92287	0.371052	8.45889
1.92637	0.336118	31.3886
1.92986	0.389222	16.5022
1.93335	0.362082	11.6846
1.93684	0.376926	43.6841
1.94032	0.348745	29.5270
1.94379	0.333300	33.3612
1.94726	0.349874	84.3156
1.95072	0.344153	28.2818
1.95418	0.365061	10.6612
1.95764	0.361822	14.2864
1.96109	0.360445	49.3315
1.96453	0.351668	29.5345
1.96797	0.333289	34.3544
1.97141	0.309493	41.8674
1.97484	0.309544	27.0993
1.97827	0.300224	23.6300
1.98169	0.305423	100000.
1.98510	0.331813	72.0471
1.98851	0.318431	43.1710
1.99192	0.313248	28.8361
1.99532	0.338053	41.2905
1.99872	0.339855	19.4542
2.00211	0.319897	148.250
2.00550	0.296056	12.0169
2.00889	0.306236	21.3643
2.01226	0.315277	27.7190
2.01564	0.299734	13.7100
2.01901	0.338138	23.5063
2.02237	0.296124	17.5230
2.02573	0.320295	66.8959
2.02909	0.347586	45.3688
2.03244	0.314426	34.1685
2.03579	0.331353	21.8729
2.03913	0.321035	27.1626
2.04247	0.314477	18.4018
2.04580	0.307929	14.1974
2.04913	0.334253	43.0603
2.05245	0.314392	110.800
2.05577	0.288307	286.640
2.05909	0.323885	27.9678
2.06240	0.331745	10.4842
2.06570	0.321804	14.3141
2.06900	0.323735	31.7016
2.07230	0.314504	41.3904
2.07559	0.334254	47.3001
2.07888	0.323345	25.2825
2.08216	0.316783	86.1734
2.08544	0.303781	146.302
2.08872	0.327544	54.7003
2.09199	0.316531	65.3371
2.09525	0.314646	114.192
2.09851	0.330068	48.3360
2.10177	0.318712	44.8268
2.10502	0.325189	159.305
2.10827	0.327286	67.2558
2.11151	0.329140	44.6836
2.11475	0.348665	80.6583
2.11798	0.348579	31.4070
2.12121	0.337151	68.3057
2.12443	0.326154	50.8917
2.12765	0.334637	160.307
2.13087	0.340449	108.234
2.13408	0.344287	100000.
2.13728	0.329341	87.3525
2.14049	0.328199	44.0993
2.14368	0.339746	44.6442
2.14687	0.336728	36.1413
2.15006	0.358132	13.1649
2.15324	0.340110	11.3440
2.15642	0.327769	40.1796
2.15959	0.332118	27.2462
2.16276	0.341151	49.6357
2.16593	0.351820	80.2769
2.16908	0.341605	158.487
2.17224	0.339276	22.5866
2.17539	0.327764	21.2914
2.17853	0.323567	22.4380
2.18167	0.338895	30.0101
2.18481	0.327392	23.4019
2.18794	0.335727	43.0807
2.19106	0.332752	50.8370
2.19418	0.323963	27.2236
2.19730	0.324193	32.8887
2.20041	0.321189	23.2136
2.20351	0.315562	131.297
2.20661	0.310761	26.6689
2.20971	0.310940	31.4427
2.21280	0.326443	119.335
2.21589	0.322229	26.5151
2.21897	0.332923	36.2459
2.22204	0.325481	46.5193
2.22511	0.339198	34.1726
2.22818	0.339295	37.6682
2.23124	0.332969	78.0827
2.23430	0.322659	57.1590
2.23735	0.330869	59.5047
2.24039	0.340787	94.4195
2.24343	0.308045	47.5899
2.24647	0.325221	100.443
2.24950	0.349075	49.1504
2.25252	0.315871	51.7970
2.25554	0.325585	48.5603
2.25856	0.311497	160.095
2.26157	0.315246	66.1739
2.26457	0.311959	285.022
2.26757	0.338972	18.3701
2.27056	0.320170	57.8837
2.27355	0.337537	67.9015
2.27653	0.310981	39.2413
2.27951	0.325175	65.0534
2.28249	0.322896	27.6679
2.28545	0.311391	47.6459
2.28842	0.301252	41.0797
2.29137	0.294160	19.7651
2.29433	0.288538	28.4918
2.29727	0.286316	18.4142
2.30022	0.285156	89.1368
2.30315	0.271363	66.5635
2.30608	0.271426	25.6882
2.30901	0.289665	144.835
2.31193	0.289268	32.7468
2.31485	0.285312	25.4064
2.31776	0.285036	34.1040
2.32066	0.267412	32.2654
2.32357	0.230730	58.9512
2.32646	0.253553	42.9569
2.32935	0.252585	44.4924
2.33224	0.247776	53.4099
2.33512	0.242999	20.3184
2.33800	0.240951	20.9291
2.34087	0.233768	75.3361
2.34373	0.269548	18.9180
2.34659	0.248641	48.4247
2.34945	0.258397	45.0718
2.35230	0.246706	12.0959
2.35515	0.245654	29.2974
2.35799	0.269595	24.4812
2.36083	0.228416	19.0763
2.36367	0.243446	14.9242
2.36649	0.227741	18.5364
2.36932	0.253586	12.1639
2.37214	0.254619	8.97645
2.37496	0.253212	22.4179
2.37777	0.251918	18.7466
2.38058	0.236147	35.9458
2.38338	0.228068	13.4474
2.38618	0.247696	10.0977
2.38898	0.204361	32.1841
2.39177	0.229281	14.0290
2.39456	0.252200	20.3863
2.39734	0.216303	24.6810
2.40013	0.252499	56.2318
2.40290	0.263704	16.5166
2.40568	0.216162	16.6928
2.40845	0.222806	13.3083
2.41122	0.193072	23.0430
2.41399	0.173846	85.3135
2.41675	0.227561	10.6960
2.41951	0.186107	17.7912
2.42227	0.210566	26.0308
2.42503	0.203050	17.1073
2.42778	0.192970	14.0517
2.43054	0.182018	7.62785
2.43329	0.255422	13.9419
2.43604	0.193360	11.1633
2.43878	0.211802	10.2787
2.44153	0.214018	14.9510
2.44428	0.203743	12.1570
2.44702	0.211553	23.6368
2.44977	0.228879	12.9847
2.45251	0.223734	11.9744
2.45525	0.158102	6.77545
2.45800	0.174387	10.6387
2.46074	0.174659	8.63088
2.46349	0.163707	9.44860
2.46623	0.192949	35.8376
2.46898	0.169165	4.98388
2.47172	0.145746	4.68608
2.47447	0.149803	10.9670
2.47722	0.176724	6.77826
2.47998	0.165467	11.5786
2.48273	0.149877	7.02972
2.48549	0.126820	3.07024
2.48825	0.144112	3.16788
2.49101	0.150629	2.68180
2.49378	0.230407	6.44370
2.49655	0.141998	1.58961
2.49933	0.194406	55.8233
2.50211	0.197621	12.5411
2.50490	0.0786410	0.935034
2.50769	0.225340	8.41234
2.51049	0.190089	2.67180
2.51329	0.282409	2.82111
2.51610	0.116257	1.99939
2.51891	0.235053	2.04699
2.52174	0.170549	4.06335
2.52457	0.256570	2.50308
2.52741	0.283810	9.07754
2.53026	0.422751	1.61755
2.53312	-0.316797	0.00000
2.53599	0.0242057	0.202831
2.53886	0.301019	2.73478
2.54175	-0.0410551	0.00000
2.54465	0.0606103	0.350426
2.54756	-0.111997	0.00000
2.55049	-0.308320	0.00000
2.55342	0.295984	0.460531
2.55637	0.100240	0.364322
2.55934	0.517018	4.09929
2.56231	-0.0522061	0.00000
